Point:,Frequency(Hz),Amplitude(dBm)
0,      0.00,    -60.46
1,5000000.00,    -51.00
2,10000000.00,    -60.92
3,15000000.00,    -52.29
4,20000000.00,    -62.51
5,25000000.00,    -51.99
6,30000000.00,    -58.74
7,35000000.00,    -53.88
8,40000000.00,    -62.32
9,45000000.00,    -53.53
10,50000000.00,    -60.58
11,55000000.00,    -53.65
12,60000000.00,    -58.70
13,65000000.00,    -54.55
14,70000000.00,    -59.58
15,75000000.00,    -53.03
16,80000000.00,    -61.73
17,85000000.00,    -50.91
18,90000000.00,    -60.83
19,95000000.00,    -52.42
20,100000000.00,    -60.78
21,105000000.00,    -55.15
22,110000000.00,    -60.61
23,115000000.00,    -53.65
24,120000000.00,    -60.54
25,125000000.00,    -53.70
26,130000000.00,    -61.68
27,135000000.00,    -53.40
28,140000000.00,    -63.55
29,145000000.00,    -54.31
30,150000000.00,    -59.35
31,155000000.00,    -54.65
32,160000000.00,    -60.80
33,165000000.00,    -53.75
34,170000000.00,    -58.91
35,175000000.00,    -52.59
36,180000000.00,    -61.68
37,185000000.00,    -53.48
38,190000000.00,    -58.57
39,195000000.00,    -54.07
40,200000000.00,    -60.78
41,205000000.00,    -54.02
42,210000000.00,    -61.42
43,215000000.00,    -55.15
44,220000000.00,    -65.45
45,225000000.00,    -52.13
46,230000000.00,    -58.17
47,235000000.00,    -50.86
48,240000000.00,    -59.26
49,245000000.00,    -53.92
50,250000000.00,    -62.52
51,255000000.00,    -52.76
52,260000000.00,    -63.82
53,265000000.00,    -51.98
54,270000000.00,    -62.21
55,275000000.00,    -53.54
56,280000000.00,    -62.40
57,285000000.00,    -53.12
58,290000000.00,    -60.63
59,295000000.00,    -54.02
60,300000000.00,    -62.58
61,305000000.00,    -52.97
62,310000000.00,    -60.02
63,315000000.00,    -54.56
64,320000000.00,    -61.96
65,325000000.00,    -54.23
66,330000000.00,    -57.76
67,335000000.00,    -53.89
68,340000000.00,    -62.04
69,345000000.00,    -52.97
70,350000000.00,    -61.96
71,355000000.00,    -54.07
72,360000000.00,    -59.22
73,365000000.00,    -53.21
74,370000000.00,    -61.10
75,375000000.00,    -52.97
76,380000000.00,    -60.03
77,385000000.00,    -52.59
78,390000000.00,    -58.27
79,395000000.00,    -52.50
80,400000000.00,    -57.67
81,405000000.00,    -50.18
82,410000000.00,    -60.33
83,415000000.00,    -51.80
84,420000000.00,    -60.73
85,425000000.00,    -54.62
86,430000000.00,    -60.80
87,435000000.00,    -55.30
88,440000000.00,    -63.21
89,445000000.00,    -52.82
90,450000000.00,    -58.33
91,455000000.00,    -53.39
92,460000000.00,    -60.08
93,465000000.00,    -53.53
94,470000000.00,    -60.34
95,475000000.00,    -53.04
96,480000000.00,    -60.81
97,485000000.00,    -51.05
98,490000000.00,    -61.49
99,495000000.00,    -47.51
100,500000000.00,    -37.45
101,505000000.00,    -36.47
102,510000000.00,    -58.80
103,515000000.00,    -51.95
104,520000000.00,    -60.45
105,525000000.00,    -54.41
106,530000000.00,    -63.04
107,535000000.00,    -53.85
108,540000000.00,    -61.48
109,545000000.00,    -52.00
110,550000000.00,    -59.22
111,555000000.00,    -52.11
112,560000000.00,    -61.39
113,565000000.00,    -53.85
114,570000000.00,    -60.83
115,575000000.00,    -52.29
116,580000000.00,    -56.95
117,585000000.00,    -51.06
118,590000000.00,    -59.21
119,595000000.00,    -52.84
120,600000000.00,    -59.32
121,605000000.00,    -53.38
122,610000000.00,    -61.17
123,615000000.00,    -53.43
124,620000000.00,    -62.44
125,625000000.00,    -55.50
126,630000000.00,    -62.49
127,635000000.00,    -54.50
128,640000000.00,    -59.90
129,645000000.00,    -55.33
130,650000000.00,    -58.87
131,655000000.00,    -54.32
132,660000000.00,    -62.53
133,665000000.00,    -54.41
134,670000000.00,    -61.82
135,675000000.00,    -51.87
136,680000000.00,    -58.42
137,685000000.00,    -53.53
138,690000000.00,    -65.31
139,695000000.00,    -55.20
140,700000000.00,    -62.56
141,705000000.00,    -53.99
142,710000000.00,    -58.82
143,715000000.00,    -52.94
144,720000000.00,    -59.47
145,725000000.00,    -53.94
146,730000000.00,    -63.39
147,735000000.00,    -52.05
148,740000000.00,    -61.26
149,745000000.00,    -55.69
150,750000000.00,    -60.54
151,755000000.00,    -51.02
152,760000000.00,    -62.48
153,765000000.00,    -52.33
154,770000000.00,    -64.51
155,775000000.00,    -53.77
156,780000000.00,    -64.10
157,785000000.00,    -52.96
158,790000000.00,    -61.24
159,795000000.00,    -53.07
160,800000000.00,    -62.92
161,805000000.00,    -53.84
162,810000000.00,    -59.18
163,815000000.00,    -52.16
164,820000000.00,    -61.66
165,825000000.00,    -53.11
166,830000000.00,    -59.21
167,835000000.00,    -53.80
168,840000000.00,    -60.25
169,845000000.00,    -52.03
170,850000000.00,    -61.34
171,855000000.00,    -52.70
172,860000000.00,    -60.78
173,865000000.00,    -53.55
174,870000000.00,    -59.81
175,875000000.00,    -52.14
176,880000000.00,    -59.23
177,885000000.00,    -52.71
178,890000000.00,    -61.37
179,895000000.00,    -53.76
180,900000000.00,    -61.07
181,905000000.00,    -54.11
182,910000000.00,    -61.39
183,915000000.00,    -52.13
184,920000000.00,    -60.58
185,925000000.00,    -54.04
186,930000000.00,    -61.78
187,935000000.00,    -52.80
188,940000000.00,    -60.89
189,945000000.00,    -53.38
190,950000000.00,    -61.22
191,955000000.00,    -51.03
192,960000000.00,    -59.31
193,965000000.00,    -51.91
194,970000000.00,    -57.15
195,975000000.00,    -51.76
196,980000000.00,    -59.49
197,985000000.00,    -51.41
198,990000000.00,    -57.61
199,995000000.00,    -54.60
200,1000000000.00,    -60.48
201,1005000000.00,    -53.15
202,1010000000.00,    -61.63
203,1015000000.00,    -51.96
204,1020000000.00,    -60.30
205,1025000000.00,    -53.26
206,1030000000.00,    -60.96
207,1035000000.00,    -52.47
208,1040000000.00,    -62.73
209,1045000000.00,    -52.33
210,1050000000.00,    -59.49
211,1055000000.00,    -52.10
212,1060000000.00,    -62.51
213,1065000000.00,    -52.44
214,1070000000.00,    -60.17
215,1075000000.00,    -52.10
216,1080000000.00,    -60.60
217,1085000000.00,    -52.41
218,1090000000.00,    -60.91
219,1095000000.00,    -52.84
220,1100000000.00,    -60.54
221,1105000000.00,    -52.42
222,1110000000.00,    -58.06
223,1115000000.00,    -54.28
224,1120000000.00,    -58.64
225,1125000000.00,    -53.46
226,1130000000.00,    -58.67
227,1135000000.00,    -52.95
228,1140000000.00,    -61.83
229,1145000000.00,    -53.50
230,1150000000.00,    -59.73
231,1155000000.00,    -53.72
232,1160000000.00,    -60.48
233,1165000000.00,    -53.45
234,1170000000.00,    -61.11
235,1175000000.00,    -52.72
236,1180000000.00,    -62.88
237,1185000000.00,    -54.87
238,1190000000.00,    -62.84
239,1195000000.00,    -52.01
240,1200000000.00,    -57.44
241,1205000000.00,    -52.18
242,1210000000.00,    -59.22
243,1215000000.00,    -52.63
244,1220000000.00,    -60.37
245,1225000000.00,    -53.66
246,1230000000.00,    -58.97
247,1235000000.00,    -53.33
248,1240000000.00,    -60.28
249,1245000000.00,    -54.07
250,1250000000.00,    -63.54
251,1255000000.00,    -53.96
252,1260000000.00,    -60.49
253,1265000000.00,    -54.05
254,1270000000.00,    -63.47
255,1275000000.00,    -53.92
256,1280000000.00,    -58.64
257,1285000000.00,    -55.21
258,1290000000.00,    -61.10
259,1295000000.00,    -51.80
260,1300000000.00,    -60.67
261,1305000000.00,    -51.15
262,1310000000.00,    -64.71
263,1315000000.00,    -54.87
264,1320000000.00,    -59.59
265,1325000000.00,    -51.45
266,1330000000.00,    -59.78
267,1335000000.00,    -52.36
268,1340000000.00,    -59.59
269,1345000000.00,    -53.37
270,1350000000.00,    -59.55
271,1355000000.00,    -52.79
272,1360000000.00,    -60.00
273,1365000000.00,    -52.06
274,1370000000.00,    -65.00
275,1375000000.00,    -54.65
276,1380000000.00,    -62.36
277,1385000000.00,    -53.77
278,1390000000.00,    -58.89
279,1395000000.00,    -51.74
280,1400000000.00,    -58.02
281,1405000000.00,    -53.97
282,1410000000.00,    -57.52
283,1415000000.00,    -52.16
284,1420000000.00,    -60.21
285,1425000000.00,    -52.77
286,1430000000.00,    -57.54
287,1435000000.00,    -54.46
288,1440000000.00,    -60.99
289,1445000000.00,    -52.75
290,1450000000.00,    -59.21
291,1455000000.00,    -53.79
292,1460000000.00,    -62.04
293,1465000000.00,    -53.58
294,1470000000.00,    -59.99
295,1475000000.00,    -53.19
296,1480000000.00,    -60.07
297,1485000000.00,    -50.53
298,1490000000.00,    -60.36
299,1495000000.00,    -54.17
300,1500000000.00,    -57.27
301,1505000000.00,    -53.05
302,1510000000.00,    -55.72
303,1515000000.00,    -50.63
304,1520000000.00,    -59.78
305,1525000000.00,    -51.41
306,1530000000.00,    -58.15
307,1535000000.00,    -52.94
308,1540000000.00,    -61.80
309,1545000000.00,    -52.46
310,1550000000.00,    -58.43
311,1555000000.00,    -50.46
312,1560000000.00,    -59.24
313,1565000000.00,    -52.75
314,1570000000.00,    -62.00
315,1575000000.00,    -53.12
316,1580000000.00,    -56.38
317,1585000000.00,    -52.99
318,1590000000.00,    -61.95
319,1595000000.00,    -53.99
320,1600000000.00,    -59.01
321,1605000000.00,    -53.78
322,1610000000.00,    -59.83
323,1615000000.00,    -53.29
324,1620000000.00,    -60.22
325,1625000000.00,    -53.56
326,1630000000.00,    -62.77
327,1635000000.00,    -51.43
328,1640000000.00,    -61.90
329,1645000000.00,    -50.30
330,1650000000.00,    -60.13
331,1655000000.00,    -52.34
332,1660000000.00,    -59.73
333,1665000000.00,    -54.03
334,1670000000.00,    -59.79
335,1675000000.00,    -52.90
336,1680000000.00,    -60.59
337,1685000000.00,    -53.84
338,1690000000.00,    -60.38
339,1695000000.00,    -52.55
340,1700000000.00,    -60.36
341,1705000000.00,    -51.77
342,1710000000.00,    -62.20
343,1715000000.00,    -54.05
344,1720000000.00,    -58.50
345,1725000000.00,    -52.76
346,1730000000.00,    -58.22
347,1735000000.00,    -53.62
348,1740000000.00,    -60.11
349,1745000000.00,    -54.18
350,1750000000.00,    -60.80
351,1755000000.00,    -52.56
352,1760000000.00,    -60.17
353,1765000000.00,    -51.81
354,1770000000.00,    -59.78
355,1775000000.00,    -52.05
356,1780000000.00,    -60.05
357,1785000000.00,    -52.47
358,1790000000.00,    -63.98
359,1795000000.00,    -53.70
360,1800000000.00,    -60.10
361,1805000000.00,    -52.76
362,1810000000.00,    -58.68
363,1815000000.00,    -52.35
364,1820000000.00,    -61.06
365,1825000000.00,    -52.05
366,1830000000.00,    -60.81
367,1835000000.00,    -52.52
368,1840000000.00,    -60.32
369,1845000000.00,    -52.60
370,1850000000.00,    -58.25
371,1855000000.00,    -53.38
372,1860000000.00,    -59.11
373,1865000000.00,    -53.83
374,1870000000.00,    -57.64
375,1875000000.00,    -52.37
376,1880000000.00,    -59.43
377,1885000000.00,    -51.37
378,1890000000.00,    -60.64
379,1895000000.00,    -54.49
380,1900000000.00,    -62.09
381,1905000000.00,    -50.25
382,1910000000.00,    -60.03
383,1915000000.00,    -49.68
384,1920000000.00,    -60.83
385,1925000000.00,    -48.61
386,1930000000.00,    -60.97
387,1935000000.00,    -53.54
388,1940000000.00,    -61.41
389,1945000000.00,    -53.46
390,1950000000.00,    -61.50
391,1955000000.00,    -52.76
392,1960000000.00,    -61.42
393,1965000000.00,    -53.29
394,1970000000.00,    -59.99
395,1975000000.00,    -51.25
396,1980000000.00,    -59.56
397,1985000000.00,    -54.85
398,1990000000.00,    -59.05
399,1995000000.00,    -52.34
400,2000000000.00,    -59.35
401,2005000000.00,    -52.33
402,2010000000.00,    -60.63
403,2015000000.00,    -51.05
404,2020000000.00,    -57.20
405,2025000000.00,    -50.57
406,2030000000.00,    -60.01
407,2035000000.00,    -53.73
408,2040000000.00,    -60.57
409,2045000000.00,    -51.78
410,2050000000.00,    -59.14
411,2055000000.00,    -51.85
412,2060000000.00,    -58.10
413,2065000000.00,    -51.74
414,2070000000.00,    -60.93
415,2075000000.00,    -52.72
416,2080000000.00,    -57.32
417,2085000000.00,    -52.36
418,2090000000.00,    -57.72
419,2095000000.00,    -50.90
420,2100000000.00,    -59.84
421,2105000000.00,    -53.47
422,2110000000.00,    -61.11
423,2115000000.00,    -52.29
424,2120000000.00,    -57.73
425,2125000000.00,    -53.56
426,2130000000.00,    -60.50
427,2135000000.00,    -51.83
428,2140000000.00,    -57.18
429,2145000000.00,    -52.38
430,2150000000.00,    -57.06
431,2155000000.00,    -52.93
432,2160000000.00,    -59.71
433,2165000000.00,    -53.25
434,2170000000.00,    -59.19
435,2175000000.00,    -52.60
436,2180000000.00,    -59.27
437,2185000000.00,    -52.71
438,2190000000.00,    -59.62
439,2195000000.00,    -53.29
440,2200000000.00,    -58.71
441,2205000000.00,    -51.42
442,2210000000.00,    -56.13
443,2215000000.00,    -50.36
444,2220000000.00,    -58.27
445,2225000000.00,    -51.40
446,2230000000.00,    -57.97
447,2235000000.00,    -53.06
448,2240000000.00,    -61.04
449,2245000000.00,    -51.74
450,2250000000.00,    -57.71
451,2255000000.00,    -52.53
452,2260000000.00,    -59.18
453,2265000000.00,    -51.84
454,2270000000.00,    -57.70
455,2275000000.00,    -50.89
456,2280000000.00,    -59.63
457,2285000000.00,    -53.51
458,2290000000.00,    -55.99
459,2295000000.00,    -52.10
460,2300000000.00,    -59.40
461,2305000000.00,    -52.34
462,2310000000.00,    -58.70
463,2315000000.00,    -51.23
464,2320000000.00,    -61.38
465,2325000000.00,    -53.21
466,2330000000.00,    -61.05
467,2335000000.00,    -49.40
468,2340000000.00,    -58.19
469,2345000000.00,    -48.46
470,2350000000.00,    -59.89
471,2355000000.00,    -52.01
472,2360000000.00,    -61.55
473,2365000000.00,    -51.86
474,2370000000.00,    -58.21
475,2375000000.00,    -52.34
476,2380000000.00,    -58.18
477,2385000000.00,    -50.09
478,2390000000.00,    -55.36
479,2395000000.00,    -50.88
480,2400000000.00,    -59.04
481,2405000000.00,    -52.13
482,2410000000.00,    -60.30
483,2415000000.00,    -51.90
484,2420000000.00,    -56.82
485,2425000000.00,    -53.42
486,2430000000.00,    -59.49
487,2435000000.00,    -52.62
488,2440000000.00,    -60.96
489,2445000000.00,    -52.94
490,2450000000.00,    -58.16
491,2455000000.00,    -50.68
492,2460000000.00,    -60.90
493,2465000000.00,    -50.62
494,2470000000.00,    -56.44
495,2475000000.00,    -51.58
496,2480000000.00,    -61.53
497,2485000000.00,    -50.11
498,2490000000.00,    -62.00
499,2495000000.00,    -51.32
500,2500000000.00,    -55.12
501,2505000000.00,    -53.65
502,2510000000.00,    -58.45
503,2515000000.00,    -51.40
504,2520000000.00,    -55.96
505,2525000000.00,    -53.07
506,2530000000.00,    -59.97
507,2535000000.00,    -50.74
508,2540000000.00,    -62.05
509,2545000000.00,    -51.72
510,2550000000.00,    -54.76
511,2555000000.00,    -52.04
512,2560000000.00,    -58.12
513,2565000000.00,    -49.89
514,2570000000.00,    -59.40
515,2575000000.00,    -50.83
516,2580000000.00,    -62.20
517,2585000000.00,    -52.66
518,2590000000.00,    -58.78
519,2595000000.00,    -51.47
520,2600000000.00,    -62.45
521,2605000000.00,    -51.11
522,2610000000.00,    -62.96
523,2615000000.00,    -52.88
524,2620000000.00,    -58.08
525,2625000000.00,    -53.50
526,2630000000.00,    -59.92
527,2635000000.00,    -51.59
528,2640000000.00,    -58.86
529,2645000000.00,    -51.39
530,2650000000.00,    -61.91
531,2655000000.00,    -51.47
532,2660000000.00,    -60.56
533,2665000000.00,    -53.56
534,2670000000.00,    -59.79
535,2675000000.00,    -51.33
536,2680000000.00,    -59.41
537,2685000000.00,    -52.73
538,2690000000.00,    -59.94
539,2695000000.00,    -52.21
540,2700000000.00,    -55.42
541,2705000000.00,    -52.12
542,2710000000.00,    -58.64
543,2715000000.00,    -51.41
544,2720000000.00,    -57.55
545,2725000000.00,    -52.19
546,2730000000.00,    -61.21
547,2735000000.00,    -51.63
548,2740000000.00,    -61.70
549,2745000000.00,    -53.27
550,2750000000.00,    -59.62
551,2755000000.00,    -52.84
552,2760000000.00,    -56.32
553,2765000000.00,    -52.27
554,2770000000.00,    -59.52
555,2775000000.00,    -51.41
556,2780000000.00,    -59.74
557,2785000000.00,    -52.11
558,2790000000.00,    -60.89
559,2795000000.00,    -49.95
560,2800000000.00,    -56.61
561,2805000000.00,    -51.50
562,2810000000.00,    -59.35
563,2815000000.00,    -50.52
564,2820000000.00,    -63.66
565,2825000000.00,    -52.72
566,2830000000.00,    -58.41
567,2835000000.00,    -52.55
568,2840000000.00,    -57.35
569,2845000000.00,    -52.04
570,2850000000.00,    -63.21
571,2855000000.00,    -53.16
572,2860000000.00,    -58.62
573,2865000000.00,    -51.16
574,2870000000.00,    -58.28
575,2875000000.00,    -51.53
576,2880000000.00,    -60.34
577,2885000000.00,    -50.27
578,2890000000.00,    -59.47
579,2895000000.00,    -50.72
580,2900000000.00,    -59.02
581,2905000000.00,    -52.10
582,2910000000.00,    -56.91
583,2915000000.00,    -52.40
584,2920000000.00,    -59.24
585,2925000000.00,    -51.08
586,2930000000.00,    -60.61
587,2935000000.00,    -52.97
588,2940000000.00,    -59.24
589,2945000000.00,    -50.95
590,2950000000.00,    -57.85
591,2955000000.00,    -52.50
592,2960000000.00,    -59.46
593,2965000000.00,    -51.49
594,2970000000.00,    -57.27
595,2975000000.00,    -51.06
596,2980000000.00,    -56.47
597,2985000000.00,    -51.51
598,2990000000.00,    -59.43
599,2995000000.00,    -50.31
600,3000000000.00,    -57.14
