Point:,Frequency(Hz),Amplitude(dBm)
0,      0.00,    -62.37
1,5000000.00,    -52.05
2,10000000.00,    -60.56
3,15000000.00,    -52.69
4,20000000.00,    -58.47
5,25000000.00,    -52.35
6,30000000.00,    -58.91
7,35000000.00,    -51.70
8,40000000.00,    -59.34
9,45000000.00,    -53.30
10,50000000.00,    -61.18
11,55000000.00,    -52.88
12,60000000.00,    -60.15
13,65000000.00,    -52.90
14,70000000.00,    -59.54
15,75000000.00,    -54.77
16,80000000.00,    -58.73
17,85000000.00,    -50.97
18,90000000.00,    -61.39
19,95000000.00,    -51.74
20,100000000.00,    -57.16
21,105000000.00,    -52.29
22,110000000.00,    -60.21
23,115000000.00,    -52.58
24,120000000.00,    -60.75
25,125000000.00,    -52.72
26,130000000.00,    -59.01
27,135000000.00,    -53.33
28,140000000.00,    -58.91
29,145000000.00,    -53.07
30,150000000.00,    -60.66
31,155000000.00,    -51.98
32,160000000.00,    -59.30
33,165000000.00,    -52.95
34,170000000.00,    -56.67
35,175000000.00,    -52.65
36,180000000.00,    -60.92
37,185000000.00,    -53.68
38,190000000.00,    -64.64
39,195000000.00,    -54.61
40,200000000.00,    -59.77
41,205000000.00,    -53.45
42,210000000.00,    -59.78
43,215000000.00,    -53.95
44,220000000.00,    -60.48
45,225000000.00,    -53.52
46,230000000.00,    -60.43
47,235000000.00,    -54.89
48,240000000.00,    -58.65
49,245000000.00,    -53.01
50,250000000.00,    -61.79
51,255000000.00,    -53.15
52,260000000.00,    -56.61
53,265000000.00,    -53.67
54,270000000.00,    -63.62
55,275000000.00,    -54.17
56,280000000.00,    -59.99
57,285000000.00,    -53.16
58,290000000.00,    -61.07
59,295000000.00,    -52.40
60,300000000.00,    -60.24
61,305000000.00,    -52.95
62,310000000.00,    -62.51
63,315000000.00,    -53.53
64,320000000.00,    -61.59
65,325000000.00,    -52.61
66,330000000.00,    -57.55
67,335000000.00,    -53.37
68,340000000.00,    -60.70
69,345000000.00,    -51.97
70,350000000.00,    -60.00
71,355000000.00,    -54.26
72,360000000.00,    -60.19
73,365000000.00,    -51.12
74,370000000.00,    -60.37
75,375000000.00,    -54.57
76,380000000.00,    -62.05
77,385000000.00,    -52.96
78,390000000.00,    -62.30
79,395000000.00,    -53.42
80,400000000.00,    -60.38
81,405000000.00,    -54.74
82,410000000.00,    -57.98
83,415000000.00,    -53.13
84,420000000.00,    -63.59
85,425000000.00,    -53.95
86,430000000.00,    -59.94
87,435000000.00,    -52.77
88,440000000.00,    -60.73
89,445000000.00,    -52.74
90,450000000.00,    -61.47
91,455000000.00,    -53.08
92,460000000.00,    -60.83
93,465000000.00,    -54.05
94,470000000.00,    -60.40
95,475000000.00,    -54.52
96,480000000.00,    -60.22
97,485000000.00,    -52.48
98,490000000.00,    -62.86
99,495000000.00,    -54.48
100,500000000.00,    -39.04
101,505000000.00,    -34.56
102,510000000.00,    -59.00
103,515000000.00,    -53.51
104,520000000.00,    -58.65
105,525000000.00,    -53.83
106,530000000.00,    -61.79
107,535000000.00,    -52.24
108,540000000.00,    -60.45
109,545000000.00,    -54.24
110,550000000.00,    -62.55
111,555000000.00,    -54.61
112,560000000.00,    -61.04
113,565000000.00,    -54.96
114,570000000.00,    -61.77
115,575000000.00,    -53.07
116,580000000.00,    -56.94
117,585000000.00,    -53.70
118,590000000.00,    -60.43
119,595000000.00,    -54.36
120,600000000.00,    -57.35
121,605000000.00,    -52.42
122,610000000.00,    -60.02
123,615000000.00,    -52.63
124,620000000.00,    -60.66
125,625000000.00,    -53.19
126,630000000.00,    -60.54
127,635000000.00,    -54.16
128,640000000.00,    -59.78
129,645000000.00,    -52.36
130,650000000.00,    -58.48
131,655000000.00,    -52.07
132,660000000.00,    -59.71
133,665000000.00,    -53.29
134,670000000.00,    -60.03
135,675000000.00,    -53.72
136,680000000.00,    -61.52
137,685000000.00,    -54.98
138,690000000.00,    -62.48
139,695000000.00,    -53.58
140,700000000.00,    -61.16
141,705000000.00,    -52.92
142,710000000.00,    -59.71
143,715000000.00,    -53.05
144,720000000.00,    -58.35
145,725000000.00,    -53.91
146,730000000.00,    -59.04
147,735000000.00,    -54.81
148,740000000.00,    -61.10
149,745000000.00,    -53.03
150,750000000.00,    -59.86
151,755000000.00,    -54.35
152,760000000.00,    -59.94
153,765000000.00,    -52.91
154,770000000.00,    -61.22
155,775000000.00,    -52.06
156,780000000.00,    -56.58
157,785000000.00,    -53.41
158,790000000.00,    -63.23
159,795000000.00,    -54.34
160,800000000.00,    -60.44
161,805000000.00,    -52.70
162,810000000.00,    -63.48
163,815000000.00,    -52.85
164,820000000.00,    -61.08
165,825000000.00,    -51.47
166,830000000.00,    -61.28
167,835000000.00,    -53.69
168,840000000.00,    -62.44
169,845000000.00,    -53.62
170,850000000.00,    -60.07
171,855000000.00,    -53.23
172,860000000.00,    -61.38
173,865000000.00,    -52.73
174,870000000.00,    -58.06
175,875000000.00,    -53.98
176,880000000.00,    -59.02
177,885000000.00,    -52.60
178,890000000.00,    -60.89
179,895000000.00,    -51.56
180,900000000.00,    -64.15
181,905000000.00,    -52.61
182,910000000.00,    -61.75
183,915000000.00,    -54.78
184,920000000.00,    -60.56
185,925000000.00,    -53.86
186,930000000.00,    -57.51
187,935000000.00,    -51.93
188,940000000.00,    -60.83
189,945000000.00,    -53.76
190,950000000.00,    -58.07
191,955000000.00,    -53.05
192,960000000.00,    -59.82
193,965000000.00,    -53.83
194,970000000.00,    -59.98
195,975000000.00,    -54.79
196,980000000.00,    -56.42
197,985000000.00,    -51.90
198,990000000.00,    -59.07
199,995000000.00,    -53.32
200,1000000000.00,    -58.75
201,1005000000.00,    -51.38
202,1010000000.00,    -62.07
203,1015000000.00,    -52.16
204,1020000000.00,    -60.75
205,1025000000.00,    -54.11
206,1030000000.00,    -56.94
207,1035000000.00,    -51.94
208,1040000000.00,    -58.36
209,1045000000.00,    -50.69
210,1050000000.00,    -60.27
211,1055000000.00,    -49.75
212,1060000000.00,    -62.07
213,1065000000.00,    -54.06
214,1070000000.00,    -62.49
215,1075000000.00,    -50.41
216,1080000000.00,    -59.18
217,1085000000.00,    -53.36
218,1090000000.00,    -57.96
219,1095000000.00,    -53.27
220,1100000000.00,    -59.74
221,1105000000.00,    -51.85
222,1110000000.00,    -60.63
223,1115000000.00,    -54.46
224,1120000000.00,    -60.60
225,1125000000.00,    -52.39
226,1130000000.00,    -60.26
227,1135000000.00,    -54.62
228,1140000000.00,    -63.50
229,1145000000.00,    -53.48
230,1150000000.00,    -56.27
231,1155000000.00,    -54.23
232,1160000000.00,    -58.44
233,1165000000.00,    -54.89
234,1170000000.00,    -60.45
235,1175000000.00,    -54.20
236,1180000000.00,    -60.06
237,1185000000.00,    -54.71
238,1190000000.00,    -62.99
239,1195000000.00,    -52.05
240,1200000000.00,    -61.17
241,1205000000.00,    -53.57
242,1210000000.00,    -63.26
243,1215000000.00,    -54.71
244,1220000000.00,    -57.11
245,1225000000.00,    -51.76
246,1230000000.00,    -62.04
247,1235000000.00,    -52.49
248,1240000000.00,    -61.53
249,1245000000.00,    -52.56
250,1250000000.00,    -62.82
251,1255000000.00,    -52.97
252,1260000000.00,    -61.27
253,1265000000.00,    -53.92
254,1270000000.00,    -59.75
255,1275000000.00,    -53.90
256,1280000000.00,    -59.72
257,1285000000.00,    -53.59
258,1290000000.00,    -59.10
259,1295000000.00,    -53.72
260,1300000000.00,    -60.61
261,1305000000.00,    -53.82
262,1310000000.00,    -60.78
263,1315000000.00,    -53.26
264,1320000000.00,    -61.25
265,1325000000.00,    -53.44
266,1330000000.00,    -63.60
267,1335000000.00,    -51.93
268,1340000000.00,    -59.70
269,1345000000.00,    -51.49
270,1350000000.00,    -60.83
271,1355000000.00,    -51.85
272,1360000000.00,    -61.13
273,1365000000.00,    -53.20
274,1370000000.00,    -57.34
275,1375000000.00,    -52.07
276,1380000000.00,    -60.61
277,1385000000.00,    -54.05
278,1390000000.00,    -58.93
279,1395000000.00,    -53.66
280,1400000000.00,    -58.73
281,1405000000.00,    -54.55
282,1410000000.00,    -58.34
283,1415000000.00,    -52.73
284,1420000000.00,    -60.13
285,1425000000.00,    -52.82
286,1430000000.00,    -58.21
287,1435000000.00,    -50.98
288,1440000000.00,    -61.63
289,1445000000.00,    -52.90
290,1450000000.00,    -60.99
291,1455000000.00,    -52.48
292,1460000000.00,    -60.40
293,1465000000.00,    -52.70
294,1470000000.00,    -58.47
295,1475000000.00,    -50.55
296,1480000000.00,    -57.21
297,1485000000.00,    -50.30
298,1490000000.00,    -63.06
299,1495000000.00,    -51.63
300,1500000000.00,    -57.67
301,1505000000.00,    -51.73
302,1510000000.00,    -61.52
303,1515000000.00,    -52.70
304,1520000000.00,    -59.24
305,1525000000.00,    -52.90
306,1530000000.00,    -61.31
307,1535000000.00,    -51.08
308,1540000000.00,    -57.92
309,1545000000.00,    -49.86
310,1550000000.00,    -57.61
311,1555000000.00,    -53.41
312,1560000000.00,    -61.38
313,1565000000.00,    -53.52
314,1570000000.00,    -61.16
315,1575000000.00,    -54.28
316,1580000000.00,    -59.31
317,1585000000.00,    -52.48
318,1590000000.00,    -60.53
319,1595000000.00,    -50.17
320,1600000000.00,    -60.61
321,1605000000.00,    -53.54
322,1610000000.00,    -61.42
323,1615000000.00,    -54.15
324,1620000000.00,    -59.90
325,1625000000.00,    -51.71
326,1630000000.00,    -60.25
327,1635000000.00,    -52.59
328,1640000000.00,    -59.78
329,1645000000.00,    -52.89
330,1650000000.00,    -64.68
331,1655000000.00,    -50.05
332,1660000000.00,    -59.26
333,1665000000.00,    -52.15
334,1670000000.00,    -57.07
335,1675000000.00,    -53.42
336,1680000000.00,    -57.48
337,1685000000.00,    -54.16
338,1690000000.00,    -60.44
339,1695000000.00,    -53.47
340,1700000000.00,    -61.98
341,1705000000.00,    -52.45
342,1710000000.00,    -58.78
343,1715000000.00,    -53.28
344,1720000000.00,    -61.74
345,1725000000.00,    -52.51
346,1730000000.00,    -60.20
347,1735000000.00,    -52.39
348,1740000000.00,    -61.27
349,1745000000.00,    -52.06
350,1750000000.00,    -56.39
351,1755000000.00,    -52.26
352,1760000000.00,    -62.65
353,1765000000.00,    -53.86
354,1770000000.00,    -58.91
355,1775000000.00,    -52.12
356,1780000000.00,    -57.89
357,1785000000.00,    -52.59
358,1790000000.00,    -60.56
359,1795000000.00,    -51.87
360,1800000000.00,    -60.13
361,1805000000.00,    -52.75
362,1810000000.00,    -60.55
363,1815000000.00,    -52.69
364,1820000000.00,    -57.50
365,1825000000.00,    -53.88
366,1830000000.00,    -60.82
367,1835000000.00,    -54.49
368,1840000000.00,    -61.36
369,1845000000.00,    -52.87
370,1850000000.00,    -61.02
371,1855000000.00,    -54.22
372,1860000000.00,    -61.35
373,1865000000.00,    -52.22
374,1870000000.00,    -62.76
375,1875000000.00,    -52.89
376,1880000000.00,    -61.34
377,1885000000.00,    -53.99
378,1890000000.00,    -59.98
379,1895000000.00,    -51.51
380,1900000000.00,    -62.36
381,1905000000.00,    -54.51
382,1910000000.00,    -60.33
383,1915000000.00,    -51.42
384,1920000000.00,    -61.47
385,1925000000.00,    -54.88
386,1930000000.00,    -61.33
387,1935000000.00,    -53.80
388,1940000000.00,    -60.25
389,1945000000.00,    -54.57
390,1950000000.00,    -57.35
391,1955000000.00,    -50.11
392,1960000000.00,    -58.34
393,1965000000.00,    -52.53
394,1970000000.00,    -62.25
395,1975000000.00,    -52.87
396,1980000000.00,    -59.98
397,1985000000.00,    -53.71
398,1990000000.00,    -60.99
399,1995000000.00,    -50.47
400,2000000000.00,    -63.40
401,2005000000.00,    -52.45
402,2010000000.00,    -60.07
403,2015000000.00,    -52.45
404,2020000000.00,    -59.59
405,2025000000.00,    -52.42
406,2030000000.00,    -59.99
407,2035000000.00,    -52.55
408,2040000000.00,    -61.91
409,2045000000.00,    -52.81
410,2050000000.00,    -60.99
411,2055000000.00,    -51.51
412,2060000000.00,    -62.51
413,2065000000.00,    -52.78
414,2070000000.00,    -58.94
415,2075000000.00,    -54.71
416,2080000000.00,    -58.60
417,2085000000.00,    -53.57
418,2090000000.00,    -59.29
419,2095000000.00,    -52.54
420,2100000000.00,    -59.75
421,2105000000.00,    -50.11
422,2110000000.00,    -59.62
423,2115000000.00,    -52.80
424,2120000000.00,    -60.10
425,2125000000.00,    -51.48
426,2130000000.00,    -59.16
427,2135000000.00,    -52.18
428,2140000000.00,    -57.81
429,2145000000.00,    -51.76
430,2150000000.00,    -61.72
431,2155000000.00,    -52.16
432,2160000000.00,    -62.09
433,2165000000.00,    -52.56
434,2170000000.00,    -61.65
435,2175000000.00,    -53.03
436,2180000000.00,    -60.73
437,2185000000.00,    -52.93
438,2190000000.00,    -60.51
439,2195000000.00,    -51.96
440,2200000000.00,    -60.73
441,2205000000.00,    -51.42
442,2210000000.00,    -59.27
443,2215000000.00,    -53.10
444,2220000000.00,    -58.70
445,2225000000.00,    -51.86
446,2230000000.00,    -58.92
447,2235000000.00,    -51.72
448,2240000000.00,    -57.96
449,2245000000.00,    -51.45
450,2250000000.00,    -57.38
451,2255000000.00,    -51.56
452,2260000000.00,    -59.80
453,2265000000.00,    -52.20
454,2270000000.00,    -58.32
455,2275000000.00,    -51.21
456,2280000000.00,    -57.37
457,2285000000.00,    -51.51
458,2290000000.00,    -59.81
459,2295000000.00,    -49.64
460,2300000000.00,    -56.96
461,2305000000.00,    -51.32
462,2310000000.00,    -60.68
463,2315000000.00,    -52.60
464,2320000000.00,    -59.17
465,2325000000.00,    -51.44
466,2330000000.00,    -60.73
467,2335000000.00,    -52.79
468,2340000000.00,    -59.19
469,2345000000.00,    -51.61
470,2350000000.00,    -59.44
471,2355000000.00,    -50.39
472,2360000000.00,    -59.74
473,2365000000.00,    -50.98
474,2370000000.00,    -58.93
475,2375000000.00,    -50.30
476,2380000000.00,    -56.01
477,2385000000.00,    -51.87
478,2390000000.00,    -60.15
479,2395000000.00,    -52.56
480,2400000000.00,    -59.85
481,2405000000.00,    -51.26
482,2410000000.00,    -60.28
483,2415000000.00,    -51.62
484,2420000000.00,    -59.79
485,2425000000.00,    -51.00
486,2430000000.00,    -59.92
487,2435000000.00,    -53.27
488,2440000000.00,    -60.29
489,2445000000.00,    -51.87
490,2450000000.00,    -57.91
491,2455000000.00,    -52.67
492,2460000000.00,    -60.61
493,2465000000.00,    -50.87
494,2470000000.00,    -59.92
495,2475000000.00,    -51.74
496,2480000000.00,    -59.14
497,2485000000.00,    -51.87
498,2490000000.00,    -57.80
499,2495000000.00,    -50.48
500,2500000000.00,    -60.45
501,2505000000.00,    -50.21
502,2510000000.00,    -60.99
503,2515000000.00,    -50.98
504,2520000000.00,    -58.95
505,2525000000.00,    -50.86
506,2530000000.00,    -57.11
507,2535000000.00,    -51.08
508,2540000000.00,    -58.09
509,2545000000.00,    -52.37
510,2550000000.00,    -60.73
511,2555000000.00,    -52.52
512,2560000000.00,    -55.64
513,2565000000.00,    -51.78
514,2570000000.00,    -63.36
515,2575000000.00,    -54.07
516,2580000000.00,    -60.01
517,2585000000.00,    -53.00
518,2590000000.00,    -61.06
519,2595000000.00,    -51.72
520,2600000000.00,    -57.44
521,2605000000.00,    -51.10
522,2610000000.00,    -60.58
523,2615000000.00,    -51.44
524,2620000000.00,    -61.63
525,2625000000.00,    -53.27
526,2630000000.00,    -54.64
527,2635000000.00,    -51.81
528,2640000000.00,    -59.04
529,2645000000.00,    -52.37
530,2650000000.00,    -61.05
531,2655000000.00,    -50.50
532,2660000000.00,    -58.67
533,2665000000.00,    -51.96
534,2670000000.00,    -57.91
535,2675000000.00,    -53.33
536,2680000000.00,    -60.86
537,2685000000.00,    -51.91
538,2690000000.00,    -56.97
539,2695000000.00,    -51.53
540,2700000000.00,    -59.85
541,2705000000.00,    -51.16
542,2710000000.00,    -59.26
543,2715000000.00,    -53.02
544,2720000000.00,    -60.66
545,2725000000.00,    -50.58
546,2730000000.00,    -60.61
547,2735000000.00,    -52.55
548,2740000000.00,    -58.77
549,2745000000.00,    -51.79
550,2750000000.00,    -60.11
551,2755000000.00,    -52.82
552,2760000000.00,    -59.82
553,2765000000.00,    -51.64
554,2770000000.00,    -60.32
555,2775000000.00,    -51.72
556,2780000000.00,    -58.28
557,2785000000.00,    -54.14
558,2790000000.00,    -61.04
559,2795000000.00,    -52.71
560,2800000000.00,    -58.98
561,2805000000.00,    -51.13
562,2810000000.00,    -55.04
563,2815000000.00,    -49.30
564,2820000000.00,    -58.21
565,2825000000.00,    -51.13
566,2830000000.00,    -59.21
567,2835000000.00,    -52.19
568,2840000000.00,    -56.37
569,2845000000.00,    -51.63
570,2850000000.00,    -61.71
571,2855000000.00,    -52.21
572,2860000000.00,    -59.62
573,2865000000.00,    -51.63
574,2870000000.00,    -58.95
575,2875000000.00,    -49.09
576,2880000000.00,    -61.77
577,2885000000.00,    -50.53
578,2890000000.00,    -56.23
579,2895000000.00,    -51.31
580,2900000000.00,    -58.38
581,2905000000.00,    -51.13
582,2910000000.00,    -59.14
583,2915000000.00,    -50.95
584,2920000000.00,    -59.17
585,2925000000.00,    -51.48
586,2930000000.00,    -56.63
587,2935000000.00,    -51.59
588,2940000000.00,    -58.87
589,2945000000.00,    -52.97
590,2950000000.00,    -59.38
591,2955000000.00,    -52.05
592,2960000000.00,    -59.12
593,2965000000.00,    -52.07
594,2970000000.00,    -61.28
595,2975000000.00,    -51.36
596,2980000000.00,    -59.36
597,2985000000.00,    -50.69
598,2990000000.00,    -59.61
599,2995000000.00,    -51.84
600,3000000000.00,    -60.19
