Point:,Frequency(Hz),Amplitude(dBm)
0,      0.00,    -59.93
1,5000000.00,    -55.01
2,10000000.00,    -60.09
3,15000000.00,    -54.21
4,20000000.00,    -60.40
5,25000000.00,    -51.94
6,30000000.00,    -55.22
7,35000000.00,    -52.86
8,40000000.00,    -62.38
9,45000000.00,    -54.57
10,50000000.00,    -59.57
11,55000000.00,    -52.00
12,60000000.00,    -62.82
13,65000000.00,    -54.37
14,70000000.00,    -60.81
15,75000000.00,    -54.24
16,80000000.00,    -61.12
17,85000000.00,    -53.63
18,90000000.00,    -61.15
19,95000000.00,    -52.66
20,100000000.00,    -62.98
21,105000000.00,    -53.12
22,110000000.00,    -58.33
23,115000000.00,    -50.31
24,120000000.00,    -60.67
25,125000000.00,    -53.68
26,130000000.00,    -58.35
27,135000000.00,    -52.03
28,140000000.00,    -61.10
29,145000000.00,    -53.45
30,150000000.00,    -59.15
31,155000000.00,    -53.52
32,160000000.00,    -61.83
33,165000000.00,    -54.37
34,170000000.00,    -64.18
35,175000000.00,    -54.44
36,180000000.00,    -62.83
37,185000000.00,    -54.68
38,190000000.00,    -59.05
39,195000000.00,    -53.41
40,200000000.00,    -58.21
41,205000000.00,    -52.72
42,210000000.00,    -59.14
43,215000000.00,    -54.55
44,220000000.00,    -62.29
45,225000000.00,    -54.14
46,230000000.00,    -59.62
47,235000000.00,    -52.71
48,240000000.00,    -59.60
49,245000000.00,    -53.26
50,250000000.00,    -59.94
51,255000000.00,    -51.63
52,260000000.00,    -55.79
53,265000000.00,    -52.03
54,270000000.00,    -61.25
55,275000000.00,    -51.75
56,280000000.00,    -59.56
57,285000000.00,    -54.25
58,290000000.00,    -63.27
59,295000000.00,    -53.05
60,300000000.00,    -60.73
61,305000000.00,    -53.10
62,310000000.00,    -61.50
63,315000000.00,    -54.44
64,320000000.00,    -61.49
65,325000000.00,    -53.26
66,330000000.00,    -59.76
67,335000000.00,    -53.48
68,340000000.00,    -60.43
69,345000000.00,    -53.69
70,350000000.00,    -62.46
71,355000000.00,    -52.08
72,360000000.00,    -63.45
73,365000000.00,    -53.64
74,370000000.00,    -60.56
75,375000000.00,    -53.47
76,380000000.00,    -61.91
77,385000000.00,    -53.39
78,390000000.00,    -58.78
79,395000000.00,    -53.83
80,400000000.00,    -61.99
81,405000000.00,    -53.85
82,410000000.00,    -61.11
83,415000000.00,    -55.66
84,420000000.00,    -57.21
85,425000000.00,    -53.57
86,430000000.00,    -59.17
87,435000000.00,    -52.87
88,440000000.00,    -63.36
89,445000000.00,    -52.53
90,450000000.00,    -60.96
91,455000000.00,    -54.03
92,460000000.00,    -62.87
93,465000000.00,    -54.16
94,470000000.00,    -62.86
95,475000000.00,    -52.41
96,480000000.00,    -63.05
97,485000000.00,    -53.22
98,490000000.00,    -63.44
99,495000000.00,    -54.33
100,500000000.00,    -34.07
101,505000000.00,    -32.91
102,510000000.00,    -61.48
103,515000000.00,    -52.53
104,520000000.00,    -63.76
105,525000000.00,    -52.95
106,530000000.00,    -60.84
107,535000000.00,    -53.82
108,540000000.00,    -61.05
109,545000000.00,    -52.33
110,550000000.00,    -61.55
111,555000000.00,    -52.91
112,560000000.00,    -60.43
113,565000000.00,    -51.79
114,570000000.00,    -62.07
115,575000000.00,    -53.28
116,580000000.00,    -60.69
117,585000000.00,    -54.46
118,590000000.00,    -62.38
119,595000000.00,    -54.59
120,600000000.00,    -60.82
121,605000000.00,    -53.36
122,610000000.00,    -63.17
123,615000000.00,    -54.07
124,620000000.00,    -57.61
125,625000000.00,    -53.82
126,630000000.00,    -59.46
127,635000000.00,    -54.12
128,640000000.00,    -60.04
129,645000000.00,    -54.44
130,650000000.00,    -62.45
131,655000000.00,    -54.10
132,660000000.00,    -60.54
133,665000000.00,    -53.89
134,670000000.00,    -58.01
135,675000000.00,    -53.28
136,680000000.00,    -61.93
137,685000000.00,    -53.24
138,690000000.00,    -59.47
139,695000000.00,    -53.62
140,700000000.00,    -57.00
141,705000000.00,    -52.40
142,710000000.00,    -59.59
143,715000000.00,    -52.90
144,720000000.00,    -60.94
145,725000000.00,    -53.50
146,730000000.00,    -65.05
147,735000000.00,    -54.79
148,740000000.00,    -61.06
149,745000000.00,    -55.22
150,750000000.00,    -62.15
151,755000000.00,    -53.72
152,760000000.00,    -60.57
153,765000000.00,    -53.27
154,770000000.00,    -62.41
155,775000000.00,    -52.70
156,780000000.00,    -61.44
157,785000000.00,    -53.36
158,790000000.00,    -60.92
159,795000000.00,    -54.17
160,800000000.00,    -62.58
161,805000000.00,    -53.20
162,810000000.00,    -61.02
163,815000000.00,    -54.41
164,820000000.00,    -60.81
165,825000000.00,    -52.43
166,830000000.00,    -57.58
167,835000000.00,    -52.58
168,840000000.00,    -59.36
169,845000000.00,    -53.87
170,850000000.00,    -59.86
171,855000000.00,    -53.13
172,860000000.00,    -62.47
173,865000000.00,    -52.64
174,870000000.00,    -60.64
175,875000000.00,    -53.73
176,880000000.00,    -59.46
177,885000000.00,    -53.68
178,890000000.00,    -63.18
179,895000000.00,    -50.87
180,900000000.00,    -58.65
181,905000000.00,    -54.69
182,910000000.00,    -62.75
183,915000000.00,    -54.04
184,920000000.00,    -61.92
185,925000000.00,    -52.09
186,930000000.00,    -63.34
187,935000000.00,    -50.88
188,940000000.00,    -60.70
189,945000000.00,    -52.94
190,950000000.00,    -60.74
191,955000000.00,    -53.12
192,960000000.00,    -58.96
193,965000000.00,    -53.58
194,970000000.00,    -61.41
195,975000000.00,    -52.48
196,980000000.00,    -59.45
197,985000000.00,    -52.92
198,990000000.00,    -60.12
199,995000000.00,    -52.41
200,1000000000.00,    -61.99
201,1005000000.00,    -50.23
202,1010000000.00,    -59.51
203,1015000000.00,    -53.16
204,1020000000.00,    -61.70
205,1025000000.00,    -52.44
206,1030000000.00,    -59.29
207,1035000000.00,    -52.78
208,1040000000.00,    -61.19
209,1045000000.00,    -52.50
210,1050000000.00,    -60.80
211,1055000000.00,    -52.84
212,1060000000.00,    -59.49
213,1065000000.00,    -50.99
214,1070000000.00,    -61.38
215,1075000000.00,    -51.44
216,1080000000.00,    -60.66
217,1085000000.00,    -51.15
218,1090000000.00,    -58.50
219,1095000000.00,    -52.52
220,1100000000.00,    -59.61
221,1105000000.00,    -51.69
222,1110000000.00,    -59.36
223,1115000000.00,    -54.20
224,1120000000.00,    -62.56
225,1125000000.00,    -53.44
226,1130000000.00,    -62.78
227,1135000000.00,    -53.13
228,1140000000.00,    -63.44
229,1145000000.00,    -52.54
230,1150000000.00,    -59.81
231,1155000000.00,    -52.91
232,1160000000.00,    -61.74
233,1165000000.00,    -52.48
234,1170000000.00,    -62.29
235,1175000000.00,    -53.35
236,1180000000.00,    -59.15
237,1185000000.00,    -52.28
238,1190000000.00,    -59.59
239,1195000000.00,    -52.80
240,1200000000.00,    -61.91
241,1205000000.00,    -51.39
242,1210000000.00,    -57.95
243,1215000000.00,    -51.69
244,1220000000.00,    -60.40
245,1225000000.00,    -53.27
246,1230000000.00,    -62.94
247,1235000000.00,    -53.02
248,1240000000.00,    -63.23
249,1245000000.00,    -54.05
250,1250000000.00,    -59.69
251,1255000000.00,    -53.46
252,1260000000.00,    -60.30
253,1265000000.00,    -52.60
254,1270000000.00,    -57.94
255,1275000000.00,    -52.10
256,1280000000.00,    -61.20
257,1285000000.00,    -53.32
258,1290000000.00,    -60.27
259,1295000000.00,    -50.59
260,1300000000.00,    -60.85
261,1305000000.00,    -52.29
262,1310000000.00,    -59.98
263,1315000000.00,    -51.99
264,1320000000.00,    -62.21
265,1325000000.00,    -51.95
266,1330000000.00,    -59.06
267,1335000000.00,    -52.41
268,1340000000.00,    -60.74
269,1345000000.00,    -52.38
270,1350000000.00,    -59.24
271,1355000000.00,    -54.67
272,1360000000.00,    -62.53
273,1365000000.00,    -55.15
274,1370000000.00,    -60.19
275,1375000000.00,    -53.70
276,1380000000.00,    -62.91
277,1385000000.00,    -52.26
278,1390000000.00,    -57.18
279,1395000000.00,    -52.91
280,1400000000.00,    -61.91
281,1405000000.00,    -54.46
282,1410000000.00,    -57.85
283,1415000000.00,    -54.61
284,1420000000.00,    -56.59
285,1425000000.00,    -52.52
286,1430000000.00,    -61.78
287,1435000000.00,    -51.57
288,1440000000.00,    -58.03
289,1445000000.00,    -53.07
290,1450000000.00,    -62.11
291,1455000000.00,    -53.97
292,1460000000.00,    -59.36
293,1465000000.00,    -52.30
294,1470000000.00,    -62.15
295,1475000000.00,    -52.27
296,1480000000.00,    -60.15
297,1485000000.00,    -53.80
298,1490000000.00,    -60.21
299,1495000000.00,    -54.11
300,1500000000.00,    -57.97
301,1505000000.00,    -54.49
302,1510000000.00,    -58.25
303,1515000000.00,    -52.49
304,1520000000.00,    -56.86
305,1525000000.00,    -52.47
306,1530000000.00,    -60.78
307,1535000000.00,    -54.11
308,1540000000.00,    -56.16
309,1545000000.00,    -52.26
310,1550000000.00,    -60.25
311,1555000000.00,    -53.09
312,1560000000.00,    -59.01
313,1565000000.00,    -54.57
314,1570000000.00,    -61.52
315,1575000000.00,    -53.08
316,1580000000.00,    -63.14
317,1585000000.00,    -53.21
318,1590000000.00,    -64.02
319,1595000000.00,    -51.79
320,1600000000.00,    -60.75
321,1605000000.00,    -52.79
322,1610000000.00,    -61.64
323,1615000000.00,    -53.03
324,1620000000.00,    -61.99
325,1625000000.00,    -53.32
326,1630000000.00,    -60.44
327,1635000000.00,    -53.05
328,1640000000.00,    -62.84
329,1645000000.00,    -50.31
330,1650000000.00,    -61.13
331,1655000000.00,    -53.43
332,1660000000.00,    -61.87
333,1665000000.00,    -51.46
334,1670000000.00,    -61.03
335,1675000000.00,    -52.86
336,1680000000.00,    -58.47
337,1685000000.00,    -52.97
338,1690000000.00,    -63.78
339,1695000000.00,    -50.64
340,1700000000.00,    -58.96
341,1705000000.00,    -50.69
342,1710000000.00,    -58.43
343,1715000000.00,    -52.05
344,1720000000.00,    -61.09
345,1725000000.00,    -54.52
346,1730000000.00,    -61.13
347,1735000000.00,    -53.58
348,1740000000.00,    -59.21
349,1745000000.00,    -52.12
350,1750000000.00,    -60.30
351,1755000000.00,    -51.44
352,1760000000.00,    -61.59
353,1765000000.00,    -53.04
354,1770000000.00,    -60.94
355,1775000000.00,    -52.48
356,1780000000.00,    -60.70
357,1785000000.00,    -52.67
358,1790000000.00,    -59.08
359,1795000000.00,    -52.84
360,1800000000.00,    -59.55
361,1805000000.00,    -53.48
362,1810000000.00,    -56.52
363,1815000000.00,    -52.30
364,1820000000.00,    -61.99
365,1825000000.00,    -52.42
366,1830000000.00,    -59.86
367,1835000000.00,    -50.97
368,1840000000.00,    -57.64
369,1845000000.00,    -52.84
370,1850000000.00,    -60.07
371,1855000000.00,    -50.22
372,1860000000.00,    -63.53
373,1865000000.00,    -51.43
374,1870000000.00,    -62.19
375,1875000000.00,    -53.37
376,1880000000.00,    -61.95
377,1885000000.00,    -52.85
378,1890000000.00,    -60.12
379,1895000000.00,    -52.32
380,1900000000.00,    -58.69
381,1905000000.00,    -52.17
382,1910000000.00,    -63.83
383,1915000000.00,    -53.28
384,1920000000.00,    -59.68
385,1925000000.00,    -52.90
386,1930000000.00,    -60.07
387,1935000000.00,    -53.07
388,1940000000.00,    -58.50
389,1945000000.00,    -52.73
390,1950000000.00,    -60.70
391,1955000000.00,    -52.74
392,1960000000.00,    -58.14
393,1965000000.00,    -53.23
394,1970000000.00,    -58.62
395,1975000000.00,    -51.81
396,1980000000.00,    -61.68
397,1985000000.00,    -51.39
398,1990000000.00,    -60.00
399,1995000000.00,    -52.97
400,2000000000.00,    -57.34
401,2005000000.00,    -52.48
402,2010000000.00,    -62.80
403,2015000000.00,    -53.63
404,2020000000.00,    -61.62
405,2025000000.00,    -52.77
406,2030000000.00,    -60.33
407,2035000000.00,    -51.23
408,2040000000.00,    -61.70
409,2045000000.00,    -52.18
410,2050000000.00,    -57.39
411,2055000000.00,    -51.92
412,2060000000.00,    -58.82
413,2065000000.00,    -53.19
414,2070000000.00,    -58.74
415,2075000000.00,    -52.26
416,2080000000.00,    -60.45
417,2085000000.00,    -52.32
418,2090000000.00,    -59.83
419,2095000000.00,    -52.24
420,2100000000.00,    -61.44
421,2105000000.00,    -52.86
422,2110000000.00,    -61.33
423,2115000000.00,    -52.79
424,2120000000.00,    -59.05
425,2125000000.00,    -54.45
426,2130000000.00,    -60.39
427,2135000000.00,    -53.19
428,2140000000.00,    -62.44
429,2145000000.00,    -53.33
430,2150000000.00,    -61.04
431,2155000000.00,    -53.11
432,2160000000.00,    -58.71
433,2165000000.00,    -52.42
434,2170000000.00,    -60.53
435,2175000000.00,    -51.73
436,2180000000.00,    -55.75
437,2185000000.00,    -51.69
438,2190000000.00,    -59.83
439,2195000000.00,    -52.89
440,2200000000.00,    -58.27
441,2205000000.00,    -50.86
442,2210000000.00,    -61.35
443,2215000000.00,    -51.48
444,2220000000.00,    -62.58
445,2225000000.00,    -52.69
446,2230000000.00,    -59.57
447,2235000000.00,    -52.06
448,2240000000.00,    -57.62
449,2245000000.00,    -53.68
450,2250000000.00,    -61.94
451,2255000000.00,    -52.28
452,2260000000.00,    -61.08
453,2265000000.00,    -51.59
454,2270000000.00,    -59.24
455,2275000000.00,    -50.31
456,2280000000.00,    -61.66
457,2285000000.00,    -51.34
458,2290000000.00,    -57.26
459,2295000000.00,    -52.72
460,2300000000.00,    -59.88
461,2305000000.00,    -52.18
462,2310000000.00,    -59.43
463,2315000000.00,    -50.06
464,2320000000.00,    -58.78
465,2325000000.00,    -50.59
466,2330000000.00,    -62.33
467,2335000000.00,    -51.92
468,2340000000.00,    -59.46
469,2345000000.00,    -49.76
470,2350000000.00,    -57.17
471,2355000000.00,    -52.47
472,2360000000.00,    -60.49
473,2365000000.00,    -50.54
474,2370000000.00,    -58.53
475,2375000000.00,    -51.43
476,2380000000.00,    -61.08
477,2385000000.00,    -51.57
478,2390000000.00,    -59.90
479,2395000000.00,    -52.28
480,2400000000.00,    -57.35
481,2405000000.00,    -51.39
482,2410000000.00,    -59.11
483,2415000000.00,    -50.17
484,2420000000.00,    -60.56
485,2425000000.00,    -51.86
486,2430000000.00,    -61.61
487,2435000000.00,    -50.94
488,2440000000.00,    -59.87
489,2445000000.00,    -49.84
490,2450000000.00,    -60.61
491,2455000000.00,    -51.91
492,2460000000.00,    -58.20
493,2465000000.00,    -51.83
494,2470000000.00,    -60.62
495,2475000000.00,    -51.57
496,2480000000.00,    -57.33
497,2485000000.00,    -52.93
498,2490000000.00,    -58.38
499,2495000000.00,    -51.80
500,2500000000.00,    -60.84
501,2505000000.00,    -51.64
502,2510000000.00,    -55.46
503,2515000000.00,    -51.66
504,2520000000.00,    -57.62
505,2525000000.00,    -49.92
506,2530000000.00,    -58.39
507,2535000000.00,    -53.30
508,2540000000.00,    -60.59
509,2545000000.00,    -50.55
510,2550000000.00,    -58.07
511,2555000000.00,    -51.91
512,2560000000.00,    -60.41
513,2565000000.00,    -52.45
514,2570000000.00,    -54.47
515,2575000000.00,    -51.46
516,2580000000.00,    -57.09
517,2585000000.00,    -52.26
518,2590000000.00,    -61.12
519,2595000000.00,    -50.93
520,2600000000.00,    -59.44
521,2605000000.00,    -51.75
522,2610000000.00,    -59.20
523,2615000000.00,    -51.84
524,2620000000.00,    -57.73
525,2625000000.00,    -52.22
526,2630000000.00,    -58.66
527,2635000000.00,    -52.58
528,2640000000.00,    -59.54
529,2645000000.00,    -51.09
530,2650000000.00,    -56.78
531,2655000000.00,    -53.59
532,2660000000.00,    -56.56
533,2665000000.00,    -51.87
534,2670000000.00,    -59.62
535,2675000000.00,    -52.16
536,2680000000.00,    -58.59
537,2685000000.00,    -50.98
538,2690000000.00,    -59.10
539,2695000000.00,    -49.34
540,2700000000.00,    -61.48
541,2705000000.00,    -51.93
542,2710000000.00,    -61.64
543,2715000000.00,    -52.76
544,2720000000.00,    -58.30
545,2725000000.00,    -52.63
546,2730000000.00,    -57.83
547,2735000000.00,    -52.12
548,2740000000.00,    -55.91
549,2745000000.00,    -53.49
550,2750000000.00,    -57.93
551,2755000000.00,    -50.40
552,2760000000.00,    -59.89
553,2765000000.00,    -51.45
554,2770000000.00,    -60.30
555,2775000000.00,    -52.22
556,2780000000.00,    -57.57
557,2785000000.00,    -50.90
558,2790000000.00,    -58.71
559,2795000000.00,    -50.67
560,2800000000.00,    -56.93
561,2805000000.00,    -50.08
562,2810000000.00,    -60.91
563,2815000000.00,    -52.32
564,2820000000.00,    -60.68
565,2825000000.00,    -51.80
566,2830000000.00,    -60.29
567,2835000000.00,    -52.61
568,2840000000.00,    -57.63
569,2845000000.00,    -51.52
570,2850000000.00,    -58.77
571,2855000000.00,    -53.04
572,2860000000.00,    -60.02
573,2865000000.00,    -51.76
574,2870000000.00,    -59.57
575,2875000000.00,    -51.60
576,2880000000.00,    -59.08
577,2885000000.00,    -50.78
578,2890000000.00,    -58.21
579,2895000000.00,    -52.31
580,2900000000.00,    -57.88
581,2905000000.00,    -51.51
582,2910000000.00,    -61.85
583,2915000000.00,    -51.39
584,2920000000.00,    -57.54
585,2925000000.00,    -51.33
586,2930000000.00,    -58.93
587,2935000000.00,    -52.99
588,2940000000.00,    -57.59
589,2945000000.00,    -51.67
590,2950000000.00,    -57.98
591,2955000000.00,    -52.16
592,2960000000.00,    -58.84
593,2965000000.00,    -52.13
594,2970000000.00,    -59.87
595,2975000000.00,    -52.24
596,2980000000.00,    -56.38
597,2985000000.00,    -50.54
598,2990000000.00,    -55.76
599,2995000000.00,    -49.46
600,3000000000.00,    -57.59
