Point:,Frequency(Hz),Amplitude(dBm)
0,      0.00,    -59.01
1,5000000.00,    -38.38
2,10000000.00,    -59.84
3,15000000.00,    -52.96
4,20000000.00,    -62.06
5,25000000.00,    -54.18
6,30000000.00,    -60.11
7,35000000.00,    -51.90
8,40000000.00,    -62.02
9,45000000.00,    -52.92
10,50000000.00,    -58.21
11,55000000.00,    -53.37
12,60000000.00,    -60.52
13,65000000.00,    -52.50
14,70000000.00,    -63.03
15,75000000.00,    -53.25
16,80000000.00,    -59.41
17,85000000.00,    -54.35
18,90000000.00,    -63.90
19,95000000.00,    -52.56
20,100000000.00,    -57.91
21,105000000.00,    -52.46
22,110000000.00,    -62.21
23,115000000.00,    -52.74
24,120000000.00,    -58.09
25,125000000.00,    -54.47
26,130000000.00,    -60.18
27,135000000.00,    -53.53
28,140000000.00,    -58.98
29,145000000.00,    -53.00
30,150000000.00,    -57.79
31,155000000.00,    -54.31
32,160000000.00,    -61.01
33,165000000.00,    -53.27
34,170000000.00,    -61.32
35,175000000.00,    -52.12
36,180000000.00,    -62.60
37,185000000.00,    -52.99
38,190000000.00,    -63.48
39,195000000.00,    -54.20
40,200000000.00,    -60.75
41,205000000.00,    -55.29
42,210000000.00,    -60.00
43,215000000.00,    -53.94
44,220000000.00,    -62.50
45,225000000.00,    -54.45
46,230000000.00,    -59.58
47,235000000.00,    -51.66
48,240000000.00,    -60.65
49,245000000.00,    -54.69
50,250000000.00,    -61.18
51,255000000.00,    -54.74
52,260000000.00,    -60.27
53,265000000.00,    -54.82
54,270000000.00,    -57.90
55,275000000.00,    -53.23
56,280000000.00,    -61.78
57,285000000.00,    -54.41
58,290000000.00,    -61.57
59,295000000.00,    -53.12
60,300000000.00,    -63.34
61,305000000.00,    -52.99
62,310000000.00,    -61.41
63,315000000.00,    -53.77
64,320000000.00,    -61.35
65,325000000.00,    -53.16
66,330000000.00,    -61.36
67,335000000.00,    -53.20
68,340000000.00,    -61.07
69,345000000.00,    -53.47
70,350000000.00,    -58.98
71,355000000.00,    -53.92
72,360000000.00,    -63.48
73,365000000.00,    -54.16
74,370000000.00,    -60.21
75,375000000.00,    -53.98
76,380000000.00,    -57.07
77,385000000.00,    -53.56
78,390000000.00,    -62.38
79,395000000.00,    -53.02
80,400000000.00,    -58.21
81,405000000.00,    -50.74
82,410000000.00,    -60.58
83,415000000.00,    -55.66
84,420000000.00,    -64.03
85,425000000.00,    -55.00
86,430000000.00,    -62.25
87,435000000.00,    -52.44
88,440000000.00,    -61.20
89,445000000.00,    -54.72
90,450000000.00,    -61.33
91,455000000.00,    -52.14
92,460000000.00,    -61.05
93,465000000.00,    -54.77
94,470000000.00,    -61.98
95,475000000.00,    -52.01
96,480000000.00,    -60.19
97,485000000.00,    -53.38
98,490000000.00,    -60.85
99,495000000.00,    -52.54
100,500000000.00,    -34.85
101,505000000.00,    -32.26
102,510000000.00,    -60.83
103,515000000.00,    -53.04
104,520000000.00,    -59.07
105,525000000.00,    -54.03
106,530000000.00,    -61.13
107,535000000.00,    -53.82
108,540000000.00,    -59.43
109,545000000.00,    -52.89
110,550000000.00,    -62.72
111,555000000.00,    -52.81
112,560000000.00,    -59.37
113,565000000.00,    -55.28
114,570000000.00,    -61.16
115,575000000.00,    -53.58
116,580000000.00,    -59.31
117,585000000.00,    -51.45
118,590000000.00,    -58.80
119,595000000.00,    -53.62
120,600000000.00,    -60.33
121,605000000.00,    -54.95
122,610000000.00,    -57.98
123,615000000.00,    -53.63
124,620000000.00,    -60.38
125,625000000.00,    -53.01
126,630000000.00,    -59.74
127,635000000.00,    -54.13
128,640000000.00,    -63.10
129,645000000.00,    -54.87
130,650000000.00,    -61.13
131,655000000.00,    -55.32
132,660000000.00,    -60.63
133,665000000.00,    -54.79
134,670000000.00,    -61.65
135,675000000.00,    -52.56
136,680000000.00,    -59.20
137,685000000.00,    -53.15
138,690000000.00,    -57.89
139,695000000.00,    -53.09
140,700000000.00,    -60.40
141,705000000.00,    -53.46
142,710000000.00,    -58.35
143,715000000.00,    -53.17
144,720000000.00,    -61.43
145,725000000.00,    -54.31
146,730000000.00,    -60.63
147,735000000.00,    -53.75
148,740000000.00,    -59.44
149,745000000.00,    -53.05
150,750000000.00,    -61.56
151,755000000.00,    -52.98
152,760000000.00,    -59.21
153,765000000.00,    -51.78
154,770000000.00,    -60.11
155,775000000.00,    -53.26
156,780000000.00,    -63.06
157,785000000.00,    -51.83
158,790000000.00,    -56.95
159,795000000.00,    -53.67
160,800000000.00,    -58.54
161,805000000.00,    -52.10
162,810000000.00,    -57.60
163,815000000.00,    -53.15
164,820000000.00,    -61.64
165,825000000.00,    -53.02
166,830000000.00,    -59.98
167,835000000.00,    -53.10
168,840000000.00,    -62.67
169,845000000.00,    -54.58
170,850000000.00,    -61.28
171,855000000.00,    -54.39
172,860000000.00,    -61.25
173,865000000.00,    -52.34
174,870000000.00,    -59.25
175,875000000.00,    -52.49
176,880000000.00,    -56.61
177,885000000.00,    -52.04
178,890000000.00,    -62.83
179,895000000.00,    -50.63
180,900000000.00,    -58.87
181,905000000.00,    -53.47
182,910000000.00,    -59.18
183,915000000.00,    -53.69
184,920000000.00,    -55.85
185,925000000.00,    -52.87
186,930000000.00,    -59.44
187,935000000.00,    -53.70
188,940000000.00,    -61.33
189,945000000.00,    -53.15
190,950000000.00,    -61.66
191,955000000.00,    -52.53
192,960000000.00,    -57.51
193,965000000.00,    -52.94
194,970000000.00,    -63.48
195,975000000.00,    -54.54
196,980000000.00,    -62.09
197,985000000.00,    -51.14
198,990000000.00,    -58.15
199,995000000.00,    -51.60
200,1000000000.00,    -57.70
201,1005000000.00,    -51.02
202,1010000000.00,    -62.37
203,1015000000.00,    -53.30
204,1020000000.00,    -64.09
205,1025000000.00,    -53.20
206,1030000000.00,    -59.00
207,1035000000.00,    -53.11
208,1040000000.00,    -56.80
209,1045000000.00,    -53.22
210,1050000000.00,    -57.85
211,1055000000.00,    -52.16
212,1060000000.00,    -60.49
213,1065000000.00,    -54.41
214,1070000000.00,    -58.93
215,1075000000.00,    -52.60
216,1080000000.00,    -58.96
217,1085000000.00,    -52.37
218,1090000000.00,    -62.02
219,1095000000.00,    -53.08
220,1100000000.00,    -59.68
221,1105000000.00,    -53.47
222,1110000000.00,    -62.33
223,1115000000.00,    -52.40
224,1120000000.00,    -60.45
225,1125000000.00,    -52.82
226,1130000000.00,    -59.93
227,1135000000.00,    -52.70
228,1140000000.00,    -58.60
229,1145000000.00,    -52.82
230,1150000000.00,    -59.97
231,1155000000.00,    -53.42
232,1160000000.00,    -60.54
233,1165000000.00,    -53.72
234,1170000000.00,    -60.32
235,1175000000.00,    -54.21
236,1180000000.00,    -63.37
237,1185000000.00,    -53.63
238,1190000000.00,    -61.64
239,1195000000.00,    -52.38
240,1200000000.00,    -62.63
241,1205000000.00,    -52.78
242,1210000000.00,    -60.13
243,1215000000.00,    -55.34
244,1220000000.00,    -61.87
245,1225000000.00,    -55.07
246,1230000000.00,    -60.15
247,1235000000.00,    -53.65
248,1240000000.00,    -62.63
249,1245000000.00,    -54.97
250,1250000000.00,    -61.36
251,1255000000.00,    -53.11
252,1260000000.00,    -59.62
253,1265000000.00,    -53.84
254,1270000000.00,    -63.23
255,1275000000.00,    -53.37
256,1280000000.00,    -63.46
257,1285000000.00,    -52.18
258,1290000000.00,    -60.63
259,1295000000.00,    -52.49
260,1300000000.00,    -60.65
261,1305000000.00,    -52.25
262,1310000000.00,    -58.34
263,1315000000.00,    -52.27
264,1320000000.00,    -60.68
265,1325000000.00,    -51.87
266,1330000000.00,    -63.93
267,1335000000.00,    -54.25
268,1340000000.00,    -58.95
269,1345000000.00,    -53.18
270,1350000000.00,    -59.12
271,1355000000.00,    -51.63
272,1360000000.00,    -61.73
273,1365000000.00,    -53.76
274,1370000000.00,    -61.54
275,1375000000.00,    -52.66
276,1380000000.00,    -60.20
277,1385000000.00,    -53.35
278,1390000000.00,    -60.41
279,1395000000.00,    -53.06
280,1400000000.00,    -61.68
281,1405000000.00,    -53.66
282,1410000000.00,    -58.70
283,1415000000.00,    -53.24
284,1420000000.00,    -56.82
285,1425000000.00,    -52.93
286,1430000000.00,    -62.65
287,1435000000.00,    -53.26
288,1440000000.00,    -60.93
289,1445000000.00,    -53.21
290,1450000000.00,    -63.36
291,1455000000.00,    -51.54
292,1460000000.00,    -57.04
293,1465000000.00,    -52.66
294,1470000000.00,    -58.44
295,1475000000.00,    -53.30
296,1480000000.00,    -62.48
297,1485000000.00,    -53.27
298,1490000000.00,    -60.28
299,1495000000.00,    -53.17
300,1500000000.00,    -62.78
301,1505000000.00,    -54.43
302,1510000000.00,    -61.46
303,1515000000.00,    -53.74
304,1520000000.00,    -58.55
305,1525000000.00,    -53.53
306,1530000000.00,    -60.15
307,1535000000.00,    -52.09
308,1540000000.00,    -59.18
309,1545000000.00,    -53.14
310,1550000000.00,    -62.04
311,1555000000.00,    -50.39
312,1560000000.00,    -61.00
313,1565000000.00,    -53.41
314,1570000000.00,    -59.17
315,1575000000.00,    -51.32
316,1580000000.00,    -59.84
317,1585000000.00,    -53.64
318,1590000000.00,    -58.79
319,1595000000.00,    -52.76
320,1600000000.00,    -60.02
321,1605000000.00,    -54.65
322,1610000000.00,    -60.85
323,1615000000.00,    -52.61
324,1620000000.00,    -60.96
325,1625000000.00,    -52.00
326,1630000000.00,    -57.16
327,1635000000.00,    -53.80
328,1640000000.00,    -60.78
329,1645000000.00,    -52.49
330,1650000000.00,    -59.47
331,1655000000.00,    -52.93
332,1660000000.00,    -64.18
333,1665000000.00,    -51.97
334,1670000000.00,    -56.31
335,1675000000.00,    -52.08
336,1680000000.00,    -61.69
337,1685000000.00,    -52.51
338,1690000000.00,    -59.29
339,1695000000.00,    -52.92
340,1700000000.00,    -60.20
341,1705000000.00,    -52.34
342,1710000000.00,    -59.67
343,1715000000.00,    -50.95
344,1720000000.00,    -57.65
345,1725000000.00,    -53.06
346,1730000000.00,    -63.84
347,1735000000.00,    -53.07
348,1740000000.00,    -58.96
349,1745000000.00,    -52.73
350,1750000000.00,    -57.78
351,1755000000.00,    -51.72
352,1760000000.00,    -62.09
353,1765000000.00,    -53.06
354,1770000000.00,    -58.71
355,1775000000.00,    -53.59
356,1780000000.00,    -58.48
357,1785000000.00,    -54.29
358,1790000000.00,    -59.54
359,1795000000.00,    -52.46
360,1800000000.00,    -56.67
361,1805000000.00,    -52.80
362,1810000000.00,    -59.60
363,1815000000.00,    -54.00
364,1820000000.00,    -57.49
365,1825000000.00,    -52.22
366,1830000000.00,    -55.17
367,1835000000.00,    -52.59
368,1840000000.00,    -58.77
369,1845000000.00,    -54.15
370,1850000000.00,    -61.71
371,1855000000.00,    -50.21
372,1860000000.00,    -58.17
373,1865000000.00,    -53.54
374,1870000000.00,    -57.86
375,1875000000.00,    -53.27
376,1880000000.00,    -62.19
377,1885000000.00,    -54.24
378,1890000000.00,    -62.60
379,1895000000.00,    -52.10
380,1900000000.00,    -62.30
381,1905000000.00,    -53.82
382,1910000000.00,    -59.49
383,1915000000.00,    -53.86
384,1920000000.00,    -61.48
385,1925000000.00,    -52.50
386,1930000000.00,    -61.28
387,1935000000.00,    -52.38
388,1940000000.00,    -59.64
389,1945000000.00,    -51.83
390,1950000000.00,    -59.95
391,1955000000.00,    -52.97
392,1960000000.00,    -60.94
393,1965000000.00,    -49.83
394,1970000000.00,    -61.07
395,1975000000.00,    -53.12
396,1980000000.00,    -61.19
397,1985000000.00,    -53.68
398,1990000000.00,    -60.49
399,1995000000.00,    -52.39
400,2000000000.00,    -60.71
401,2005000000.00,    -51.39
402,2010000000.00,    -60.48
403,2015000000.00,    -52.50
404,2020000000.00,    -57.83
405,2025000000.00,    -53.29
406,2030000000.00,    -58.76
407,2035000000.00,    -51.19
408,2040000000.00,    -59.69
409,2045000000.00,    -54.19
410,2050000000.00,    -61.58
411,2055000000.00,    -53.57
412,2060000000.00,    -58.54
413,2065000000.00,    -51.81
414,2070000000.00,    -61.01
415,2075000000.00,    -52.65
416,2080000000.00,    -59.16
417,2085000000.00,    -52.55
418,2090000000.00,    -61.47
419,2095000000.00,    -52.47
420,2100000000.00,    -59.96
421,2105000000.00,    -52.78
422,2110000000.00,    -62.44
423,2115000000.00,    -52.58
424,2120000000.00,    -60.04
425,2125000000.00,    -52.29
426,2130000000.00,    -56.74
427,2135000000.00,    -53.09
428,2140000000.00,    -62.37
429,2145000000.00,    -52.88
430,2150000000.00,    -58.23
431,2155000000.00,    -49.90
432,2160000000.00,    -60.68
433,2165000000.00,    -51.31
434,2170000000.00,    -58.74
435,2175000000.00,    -52.19
436,2180000000.00,    -60.53
437,2185000000.00,    -52.42
438,2190000000.00,    -59.31
439,2195000000.00,    -54.31
440,2200000000.00,    -60.39
441,2205000000.00,    -51.82
442,2210000000.00,    -58.46
443,2215000000.00,    -52.93
444,2220000000.00,    -59.40
445,2225000000.00,    -53.19
446,2230000000.00,    -60.19
447,2235000000.00,    -52.04
448,2240000000.00,    -59.73
449,2245000000.00,    -50.39
450,2250000000.00,    -56.94
451,2255000000.00,    -52.70
452,2260000000.00,    -61.95
453,2265000000.00,    -52.51
454,2270000000.00,    -58.94
455,2275000000.00,    -52.57
456,2280000000.00,    -60.29
457,2285000000.00,    -51.22
458,2290000000.00,    -58.89
459,2295000000.00,    -50.07
460,2300000000.00,    -58.37
461,2305000000.00,    -52.52
462,2310000000.00,    -60.49
463,2315000000.00,    -52.91
464,2320000000.00,    -56.08
465,2325000000.00,    -51.03
466,2330000000.00,    -58.39
467,2335000000.00,    -50.36
468,2340000000.00,    -58.22
469,2345000000.00,    -51.66
470,2350000000.00,    -62.25
471,2355000000.00,    -50.96
472,2360000000.00,    -60.00
473,2365000000.00,    -52.24
474,2370000000.00,    -60.56
475,2375000000.00,    -52.44
476,2380000000.00,    -60.86
477,2385000000.00,    -52.53
478,2390000000.00,    -58.71
479,2395000000.00,    -51.05
480,2400000000.00,    -60.75
481,2405000000.00,    -51.10
482,2410000000.00,    -59.57
483,2415000000.00,    -51.74
484,2420000000.00,    -58.87
485,2425000000.00,    -52.61
486,2430000000.00,    -60.70
487,2435000000.00,    -52.62
488,2440000000.00,    -63.24
489,2445000000.00,    -50.48
490,2450000000.00,    -61.30
491,2455000000.00,    -52.27
492,2460000000.00,    -61.21
493,2465000000.00,    -51.80
494,2470000000.00,    -58.79
495,2475000000.00,    -53.53
496,2480000000.00,    -62.26
497,2485000000.00,    -51.93
498,2490000000.00,    -60.09
499,2495000000.00,    -53.16
500,2500000000.00,    -57.57
501,2505000000.00,    -50.88
502,2510000000.00,    -62.14
503,2515000000.00,    -53.91
504,2520000000.00,    -60.00
505,2525000000.00,    -51.64
506,2530000000.00,    -54.78
507,2535000000.00,    -51.55
508,2540000000.00,    -59.62
509,2545000000.00,    -51.91
510,2550000000.00,    -56.63
511,2555000000.00,    -50.90
512,2560000000.00,    -58.82
513,2565000000.00,    -52.70
514,2570000000.00,    -60.83
515,2575000000.00,    -52.66
516,2580000000.00,    -57.18
517,2585000000.00,    -51.77
518,2590000000.00,    -61.30
519,2595000000.00,    -51.24
520,2600000000.00,    -59.77
521,2605000000.00,    -52.48
522,2610000000.00,    -58.81
523,2615000000.00,    -50.47
524,2620000000.00,    -60.85
525,2625000000.00,    -51.02
526,2630000000.00,    -61.37
527,2635000000.00,    -51.74
528,2640000000.00,    -58.62
529,2645000000.00,    -52.88
530,2650000000.00,    -57.42
531,2655000000.00,    -51.00
532,2660000000.00,    -60.39
533,2665000000.00,    -51.50
534,2670000000.00,    -59.66
535,2675000000.00,    -52.48
536,2680000000.00,    -58.77
537,2685000000.00,    -51.23
538,2690000000.00,    -58.32
539,2695000000.00,    -53.10
540,2700000000.00,    -59.81
541,2705000000.00,    -52.42
542,2710000000.00,    -58.66
543,2715000000.00,    -52.06
544,2720000000.00,    -55.78
545,2725000000.00,    -49.84
546,2730000000.00,    -58.27
547,2735000000.00,    -52.90
548,2740000000.00,    -55.51
549,2745000000.00,    -50.55
550,2750000000.00,    -58.83
551,2755000000.00,    -51.06
552,2760000000.00,    -60.29
553,2765000000.00,    -53.79
554,2770000000.00,    -62.39
555,2775000000.00,    -49.33
556,2780000000.00,    -57.44
557,2785000000.00,    -50.16
558,2790000000.00,    -59.31
559,2795000000.00,    -51.83
560,2800000000.00,    -58.96
561,2805000000.00,    -51.28
562,2810000000.00,    -58.19
563,2815000000.00,    -51.84
564,2820000000.00,    -59.87
565,2825000000.00,    -52.95
566,2830000000.00,    -64.73
567,2835000000.00,    -53.08
568,2840000000.00,    -63.18
569,2845000000.00,    -50.95
570,2850000000.00,    -58.33
571,2855000000.00,    -52.51
572,2860000000.00,    -58.07
573,2865000000.00,    -50.62
574,2870000000.00,    -59.70
575,2875000000.00,    -52.15
576,2880000000.00,    -59.78
577,2885000000.00,    -52.20
578,2890000000.00,    -57.90
579,2895000000.00,    -51.58
580,2900000000.00,    -59.41
581,2905000000.00,    -53.60
582,2910000000.00,    -59.20
583,2915000000.00,    -52.74
584,2920000000.00,    -59.64
585,2925000000.00,    -51.90
586,2930000000.00,    -59.17
587,2935000000.00,    -49.80
588,2940000000.00,    -61.58
589,2945000000.00,    -53.10
590,2950000000.00,    -58.46
591,2955000000.00,    -50.76
592,2960000000.00,    -56.87
593,2965000000.00,    -50.51
594,2970000000.00,    -58.59
595,2975000000.00,    -52.99
596,2980000000.00,    -56.67
597,2985000000.00,    -50.49
598,2990000000.00,    -58.26
599,2995000000.00,    -51.28
600,3000000000.00,    -58.10
