Point:,Frequency(Hz),Amplitude(dBm)
0,      0.00,    -62.43
1,5000000.00,    -53.39
2,10000000.00,    -58.26
3,15000000.00,    -54.07
4,20000000.00,    -58.66
5,25000000.00,    -51.62
6,30000000.00,    -61.78
7,35000000.00,    -54.62
8,40000000.00,    -56.49
9,45000000.00,    -52.17
10,50000000.00,    -63.22
11,55000000.00,    -54.07
12,60000000.00,    -60.72
13,65000000.00,    -52.55
14,70000000.00,    -59.96
15,75000000.00,    -55.12
16,80000000.00,    -61.40
17,85000000.00,    -53.48
18,90000000.00,    -61.78
19,95000000.00,    -54.01
20,100000000.00,    -59.35
21,105000000.00,    -52.70
22,110000000.00,    -59.91
23,115000000.00,    -53.89
24,120000000.00,    -62.58
25,125000000.00,    -54.39
26,130000000.00,    -60.89
27,135000000.00,    -53.48
28,140000000.00,    -60.70
29,145000000.00,    -53.39
30,150000000.00,    -62.26
31,155000000.00,    -52.36
32,160000000.00,    -58.94
33,165000000.00,    -53.99
34,170000000.00,    -64.11
35,175000000.00,    -51.80
36,180000000.00,    -60.50
37,185000000.00,    -54.22
38,190000000.00,    -61.01
39,195000000.00,    -53.01
40,200000000.00,    -60.56
41,205000000.00,    -54.03
42,210000000.00,    -59.74
43,215000000.00,    -52.31
44,220000000.00,    -61.34
45,225000000.00,    -52.14
46,230000000.00,    -62.14
47,235000000.00,    -53.32
48,240000000.00,    -62.51
49,245000000.00,    -52.14
50,250000000.00,    -61.34
51,255000000.00,    -54.84
52,260000000.00,    -59.59
53,265000000.00,    -51.76
54,270000000.00,    -60.93
55,275000000.00,    -54.52
56,280000000.00,    -61.21
57,285000000.00,    -54.95
58,290000000.00,    -62.05
59,295000000.00,    -52.06
60,300000000.00,    -60.78
61,305000000.00,    -53.91
62,310000000.00,    -62.03
63,315000000.00,    -52.34
64,320000000.00,    -61.87
65,325000000.00,    -54.84
66,330000000.00,    -62.12
67,335000000.00,    -53.53
68,340000000.00,    -62.10
69,345000000.00,    -52.90
70,350000000.00,    -62.05
71,355000000.00,    -52.67
72,360000000.00,    -59.47
73,365000000.00,    -54.51
74,370000000.00,    -58.80
75,375000000.00,    -52.28
76,380000000.00,    -61.38
77,385000000.00,    -52.96
78,390000000.00,    -63.56
79,395000000.00,    -53.82
80,400000000.00,    -60.97
81,405000000.00,    -53.21
82,410000000.00,    -62.05
83,415000000.00,    -54.21
84,420000000.00,    -60.38
85,425000000.00,    -53.85
86,430000000.00,    -63.83
87,435000000.00,    -54.25
88,440000000.00,    -62.31
89,445000000.00,    -51.65
90,450000000.00,    -59.46
91,455000000.00,    -53.85
92,460000000.00,    -62.32
93,465000000.00,    -53.42
94,470000000.00,    -60.39
95,475000000.00,    -50.60
96,480000000.00,    -59.41
97,485000000.00,    -52.76
98,490000000.00,    -64.16
99,495000000.00,    -51.08
100,500000000.00,    -39.27
101,505000000.00,    -33.45
102,510000000.00,    -60.44
103,515000000.00,    -52.77
104,520000000.00,    -57.39
105,525000000.00,    -53.54
106,530000000.00,    -63.19
107,535000000.00,    -52.01
108,540000000.00,    -60.99
109,545000000.00,    -52.20
110,550000000.00,    -60.50
111,555000000.00,    -53.82
112,560000000.00,    -63.13
113,565000000.00,    -54.34
114,570000000.00,    -59.33
115,575000000.00,    -52.44
116,580000000.00,    -61.63
117,585000000.00,    -53.62
118,590000000.00,    -60.89
119,595000000.00,    -52.91
120,600000000.00,    -58.40
121,605000000.00,    -53.41
122,610000000.00,    -63.27
123,615000000.00,    -53.24
124,620000000.00,    -60.59
125,625000000.00,    -53.26
126,630000000.00,    -62.76
127,635000000.00,    -52.91
128,640000000.00,    -62.60
129,645000000.00,    -54.26
130,650000000.00,    -62.74
131,655000000.00,    -54.10
132,660000000.00,    -59.73
133,665000000.00,    -52.51
134,670000000.00,    -62.09
135,675000000.00,    -53.33
136,680000000.00,    -61.48
137,685000000.00,    -51.97
138,690000000.00,    -62.51
139,695000000.00,    -53.60
140,700000000.00,    -63.53
141,705000000.00,    -53.15
142,710000000.00,    -59.58
143,715000000.00,    -54.87
144,720000000.00,    -60.00
145,725000000.00,    -53.57
146,730000000.00,    -60.93
147,735000000.00,    -52.49
148,740000000.00,    -60.16
149,745000000.00,    -53.34
150,750000000.00,    -61.32
151,755000000.00,    -52.17
152,760000000.00,    -58.47
153,765000000.00,    -54.89
154,770000000.00,    -62.55
155,775000000.00,    -52.97
156,780000000.00,    -63.24
157,785000000.00,    -55.21
158,790000000.00,    -54.77
159,795000000.00,    -49.99
160,800000000.00,    -62.48
161,805000000.00,    -52.74
162,810000000.00,    -60.34
163,815000000.00,    -51.99
164,820000000.00,    -60.25
165,825000000.00,    -51.45
166,830000000.00,    -58.89
167,835000000.00,    -52.17
168,840000000.00,    -58.67
169,845000000.00,    -52.61
170,850000000.00,    -58.15
171,855000000.00,    -53.60
172,860000000.00,    -58.34
173,865000000.00,    -54.08
174,870000000.00,    -56.91
175,875000000.00,    -51.58
176,880000000.00,    -61.88
177,885000000.00,    -53.06
178,890000000.00,    -61.25
179,895000000.00,    -53.14
180,900000000.00,    -58.96
181,905000000.00,    -53.50
182,910000000.00,    -58.35
183,915000000.00,    -52.42
184,920000000.00,    -57.44
185,925000000.00,    -52.20
186,930000000.00,    -61.67
187,935000000.00,    -51.54
188,940000000.00,    -56.46
189,945000000.00,    -52.86
190,950000000.00,    -60.70
191,955000000.00,    -52.28
192,960000000.00,    -56.25
193,965000000.00,    -50.91
194,970000000.00,    -61.39
195,975000000.00,    -52.30
196,980000000.00,    -57.87
197,985000000.00,    -51.57
198,990000000.00,    -58.35
199,995000000.00,    -52.32
200,1000000000.00,    -61.07
201,1005000000.00,    -54.84
202,1010000000.00,    -59.43
203,1015000000.00,    -52.76
204,1020000000.00,    -58.77
205,1025000000.00,    -54.62
206,1030000000.00,    -57.92
207,1035000000.00,    -52.44
208,1040000000.00,    -61.55
209,1045000000.00,    -53.80
210,1050000000.00,    -57.74
211,1055000000.00,    -53.91
212,1060000000.00,    -60.47
213,1065000000.00,    -53.70
214,1070000000.00,    -56.51
215,1075000000.00,    -53.45
216,1080000000.00,    -58.75
217,1085000000.00,    -53.64
218,1090000000.00,    -57.86
219,1095000000.00,    -53.34
220,1100000000.00,    -58.81
221,1105000000.00,    -53.84
222,1110000000.00,    -60.83
223,1115000000.00,    -52.20
224,1120000000.00,    -62.45
225,1125000000.00,    -54.23
226,1130000000.00,    -60.04
227,1135000000.00,    -54.03
228,1140000000.00,    -62.35
229,1145000000.00,    -53.81
230,1150000000.00,    -62.36
231,1155000000.00,    -51.20
232,1160000000.00,    -61.71
233,1165000000.00,    -52.20
234,1170000000.00,    -62.94
235,1175000000.00,    -52.30
236,1180000000.00,    -60.75
237,1185000000.00,    -54.09
238,1190000000.00,    -63.15
239,1195000000.00,    -54.67
240,1200000000.00,    -61.12
241,1205000000.00,    -54.04
242,1210000000.00,    -59.40
243,1215000000.00,    -53.09
244,1220000000.00,    -61.75
245,1225000000.00,    -53.13
246,1230000000.00,    -57.04
247,1235000000.00,    -53.88
248,1240000000.00,    -61.80
249,1245000000.00,    -53.39
250,1250000000.00,    -61.83
251,1255000000.00,    -54.03
252,1260000000.00,    -57.82
253,1265000000.00,    -52.27
254,1270000000.00,    -62.76
255,1275000000.00,    -53.02
256,1280000000.00,    -62.39
257,1285000000.00,    -52.20
258,1290000000.00,    -60.46
259,1295000000.00,    -54.10
260,1300000000.00,    -61.84
261,1305000000.00,    -53.82
262,1310000000.00,    -58.13
263,1315000000.00,    -51.95
264,1320000000.00,    -60.36
265,1325000000.00,    -52.00
266,1330000000.00,    -62.70
267,1335000000.00,    -54.18
268,1340000000.00,    -63.15
269,1345000000.00,    -53.89
270,1350000000.00,    -60.95
271,1355000000.00,    -51.58
272,1360000000.00,    -61.03
273,1365000000.00,    -53.56
274,1370000000.00,    -59.07
275,1375000000.00,    -52.99
276,1380000000.00,    -62.67
277,1385000000.00,    -52.33
278,1390000000.00,    -59.54
279,1395000000.00,    -50.41
280,1400000000.00,    -64.12
281,1405000000.00,    -52.77
282,1410000000.00,    -61.69
283,1415000000.00,    -51.11
284,1420000000.00,    -58.05
285,1425000000.00,    -51.83
286,1430000000.00,    -61.13
287,1435000000.00,    -53.97
288,1440000000.00,    -56.05
289,1445000000.00,    -51.48
290,1450000000.00,    -57.87
291,1455000000.00,    -53.05
292,1460000000.00,    -58.30
293,1465000000.00,    -51.63
294,1470000000.00,    -58.94
295,1475000000.00,    -51.96
296,1480000000.00,    -58.09
297,1485000000.00,    -52.08
298,1490000000.00,    -59.89
299,1495000000.00,    -53.21
300,1500000000.00,    -59.24
301,1505000000.00,    -53.42
302,1510000000.00,    -57.88
303,1515000000.00,    -52.92
304,1520000000.00,    -59.38
305,1525000000.00,    -53.67
306,1530000000.00,    -61.96
307,1535000000.00,    -53.20
308,1540000000.00,    -61.72
309,1545000000.00,    -53.25
310,1550000000.00,    -61.55
311,1555000000.00,    -53.10
312,1560000000.00,    -61.03
313,1565000000.00,    -53.45
314,1570000000.00,    -60.24
315,1575000000.00,    -52.97
316,1580000000.00,    -59.35
317,1585000000.00,    -54.02
318,1590000000.00,    -61.60
319,1595000000.00,    -52.58
320,1600000000.00,    -60.62
321,1605000000.00,    -54.70
322,1610000000.00,    -57.06
323,1615000000.00,    -50.25
324,1620000000.00,    -57.74
325,1625000000.00,    -53.23
326,1630000000.00,    -60.47
327,1635000000.00,    -52.50
328,1640000000.00,    -60.48
329,1645000000.00,    -53.53
330,1650000000.00,    -62.11
331,1655000000.00,    -52.08
332,1660000000.00,    -59.41
333,1665000000.00,    -52.67
334,1670000000.00,    -63.53
335,1675000000.00,    -52.91
336,1680000000.00,    -58.79
337,1685000000.00,    -53.96
338,1690000000.00,    -58.25
339,1695000000.00,    -52.24
340,1700000000.00,    -60.99
341,1705000000.00,    -51.37
342,1710000000.00,    -62.28
343,1715000000.00,    -51.25
344,1720000000.00,    -60.36
345,1725000000.00,    -53.47
346,1730000000.00,    -57.94
347,1735000000.00,    -52.39
348,1740000000.00,    -60.59
349,1745000000.00,    -53.12
350,1750000000.00,    -59.90
351,1755000000.00,    -52.58
352,1760000000.00,    -57.13
353,1765000000.00,    -52.22
354,1770000000.00,    -62.42
355,1775000000.00,    -52.84
356,1780000000.00,    -59.66
357,1785000000.00,    -52.19
358,1790000000.00,    -63.22
359,1795000000.00,    -53.42
360,1800000000.00,    -60.58
361,1805000000.00,    -52.84
362,1810000000.00,    -57.90
363,1815000000.00,    -54.20
364,1820000000.00,    -61.44
365,1825000000.00,    -51.46
366,1830000000.00,    -59.19
367,1835000000.00,    -50.72
368,1840000000.00,    -59.73
369,1845000000.00,    -53.12
370,1850000000.00,    -60.07
371,1855000000.00,    -53.69
372,1860000000.00,    -62.09
373,1865000000.00,    -53.83
374,1870000000.00,    -59.56
375,1875000000.00,    -53.26
376,1880000000.00,    -63.37
377,1885000000.00,    -51.60
378,1890000000.00,    -58.07
379,1895000000.00,    -51.86
380,1900000000.00,    -59.08
381,1905000000.00,    -52.77
382,1910000000.00,    -60.34
383,1915000000.00,    -51.70
384,1920000000.00,    -62.40
385,1925000000.00,    -53.88
386,1930000000.00,    -59.12
387,1935000000.00,    -53.67
388,1940000000.00,    -62.39
389,1945000000.00,    -51.90
390,1950000000.00,    -61.27
391,1955000000.00,    -53.32
392,1960000000.00,    -58.26
393,1965000000.00,    -52.25
394,1970000000.00,    -60.31
395,1975000000.00,    -52.12
396,1980000000.00,    -59.03
397,1985000000.00,    -52.82
398,1990000000.00,    -62.59
399,1995000000.00,    -54.28
400,2000000000.00,    -61.74
401,2005000000.00,    -52.56
402,2010000000.00,    -61.36
403,2015000000.00,    -53.95
404,2020000000.00,    -58.14
405,2025000000.00,    -52.22
406,2030000000.00,    -60.70
407,2035000000.00,    -52.32
408,2040000000.00,    -57.79
409,2045000000.00,    -51.12
410,2050000000.00,    -58.08
411,2055000000.00,    -52.60
412,2060000000.00,    -60.36
413,2065000000.00,    -53.61
414,2070000000.00,    -62.46
415,2075000000.00,    -53.74
416,2080000000.00,    -60.00
417,2085000000.00,    -52.90
418,2090000000.00,    -57.53
419,2095000000.00,    -52.13
420,2100000000.00,    -60.16
421,2105000000.00,    -51.83
422,2110000000.00,    -61.13
423,2115000000.00,    -53.33
424,2120000000.00,    -58.19
425,2125000000.00,    -51.17
426,2130000000.00,    -59.78
427,2135000000.00,    -51.92
428,2140000000.00,    -59.09
429,2145000000.00,    -53.35
430,2150000000.00,    -61.27
431,2155000000.00,    -53.05
432,2160000000.00,    -60.51
433,2165000000.00,    -50.66
434,2170000000.00,    -59.81
435,2175000000.00,    -52.71
436,2180000000.00,    -57.95
437,2185000000.00,    -52.49
438,2190000000.00,    -59.21
439,2195000000.00,    -54.20
440,2200000000.00,    -59.29
441,2205000000.00,    -49.90
442,2210000000.00,    -60.36
443,2215000000.00,    -52.86
444,2220000000.00,    -62.34
445,2225000000.00,    -53.02
446,2230000000.00,    -58.09
447,2235000000.00,    -52.36
448,2240000000.00,    -61.49
449,2245000000.00,    -53.19
450,2250000000.00,    -59.25
451,2255000000.00,    -54.23
452,2260000000.00,    -61.38
453,2265000000.00,    -52.45
454,2270000000.00,    -63.11
455,2275000000.00,    -53.46
456,2280000000.00,    -59.52
457,2285000000.00,    -51.69
458,2290000000.00,    -59.12
459,2295000000.00,    -49.87
460,2300000000.00,    -59.46
461,2305000000.00,    -50.43
462,2310000000.00,    -57.49
463,2315000000.00,    -51.05
464,2320000000.00,    -57.01
465,2325000000.00,    -51.77
466,2330000000.00,    -58.66
467,2335000000.00,    -50.30
468,2340000000.00,    -55.89
469,2345000000.00,    -51.40
470,2350000000.00,    -57.15
471,2355000000.00,    -50.97
472,2360000000.00,    -59.20
473,2365000000.00,    -51.28
474,2370000000.00,    -59.21
475,2375000000.00,    -52.00
476,2380000000.00,    -55.80
477,2385000000.00,    -53.26
478,2390000000.00,    -58.87
479,2395000000.00,    -52.11
480,2400000000.00,    -59.97
481,2405000000.00,    -51.38
482,2410000000.00,    -57.56
483,2415000000.00,    -53.04
484,2420000000.00,    -60.11
485,2425000000.00,    -52.97
486,2430000000.00,    -59.88
487,2435000000.00,    -51.10
488,2440000000.00,    -59.03
489,2445000000.00,    -53.48
490,2450000000.00,    -60.85
491,2455000000.00,    -52.50
492,2460000000.00,    -62.28
493,2465000000.00,    -53.26
494,2470000000.00,    -61.63
495,2475000000.00,    -52.42
496,2480000000.00,    -62.38
497,2485000000.00,    -51.91
498,2490000000.00,    -60.88
499,2495000000.00,    -52.52
500,2500000000.00,    -58.09
501,2505000000.00,    -51.63
502,2510000000.00,    -57.93
503,2515000000.00,    -50.62
504,2520000000.00,    -60.24
505,2525000000.00,    -49.51
506,2530000000.00,    -60.67
507,2535000000.00,    -49.64
508,2540000000.00,    -59.52
509,2545000000.00,    -51.38
510,2550000000.00,    -56.49
511,2555000000.00,    -50.77
512,2560000000.00,    -56.92
513,2565000000.00,    -50.67
514,2570000000.00,    -57.89
515,2575000000.00,    -50.86
516,2580000000.00,    -57.99
517,2585000000.00,    -51.84
518,2590000000.00,    -58.77
519,2595000000.00,    -51.18
520,2600000000.00,    -58.49
521,2605000000.00,    -49.36
522,2610000000.00,    -56.51
523,2615000000.00,    -51.45
524,2620000000.00,    -58.09
525,2625000000.00,    -51.65
526,2630000000.00,    -58.49
527,2635000000.00,    -53.07
528,2640000000.00,    -60.34
529,2645000000.00,    -52.83
530,2650000000.00,    -60.70
531,2655000000.00,    -52.46
532,2660000000.00,    -61.25
533,2665000000.00,    -52.26
534,2670000000.00,    -59.79
535,2675000000.00,    -52.48
536,2680000000.00,    -56.66
537,2685000000.00,    -50.90
538,2690000000.00,    -60.39
539,2695000000.00,    -51.83
540,2700000000.00,    -61.70
541,2705000000.00,    -52.32
542,2710000000.00,    -58.14
543,2715000000.00,    -50.96
544,2720000000.00,    -54.94
545,2725000000.00,    -49.01
546,2730000000.00,    -60.58
547,2735000000.00,    -52.58
548,2740000000.00,    -61.33
549,2745000000.00,    -51.68
550,2750000000.00,    -59.62
551,2755000000.00,    -52.02
552,2760000000.00,    -61.02
553,2765000000.00,    -51.90
554,2770000000.00,    -58.63
555,2775000000.00,    -51.53
556,2780000000.00,    -60.80
557,2785000000.00,    -50.32
558,2790000000.00,    -59.24
559,2795000000.00,    -52.52
560,2800000000.00,    -60.73
561,2805000000.00,    -51.97
562,2810000000.00,    -60.82
563,2815000000.00,    -51.60
564,2820000000.00,    -57.03
565,2825000000.00,    -51.20
566,2830000000.00,    -58.12
567,2835000000.00,    -49.85
568,2840000000.00,    -59.72
569,2845000000.00,    -52.86
570,2850000000.00,    -59.45
571,2855000000.00,    -51.31
572,2860000000.00,    -58.21
573,2865000000.00,    -51.98
574,2870000000.00,    -57.40
575,2875000000.00,    -51.90
576,2880000000.00,    -57.90
577,2885000000.00,    -52.14
578,2890000000.00,    -57.04
579,2895000000.00,    -53.01
580,2900000000.00,    -60.32
581,2905000000.00,    -52.63
582,2910000000.00,    -58.25
583,2915000000.00,    -52.13
584,2920000000.00,    -59.41
585,2925000000.00,    -53.41
586,2930000000.00,    -57.18
587,2935000000.00,    -51.59
588,2940000000.00,    -61.42
589,2945000000.00,    -53.37
590,2950000000.00,    -60.80
591,2955000000.00,    -53.33
592,2960000000.00,    -64.37
593,2965000000.00,    -50.68
594,2970000000.00,    -59.41
595,2975000000.00,    -50.88
596,2980000000.00,    -60.15
597,2985000000.00,    -51.62
598,2990000000.00,    -60.68
599,2995000000.00,    -52.90
600,3000000000.00,    -54.34
