Point:,Frequency(Hz),Amplitude(dBm)
0,      0.00,    -59.20
1,5000000.00,    -51.74
2,10000000.00,    -59.87
3,15000000.00,    -53.94
4,20000000.00,    -62.28
5,25000000.00,    -53.52
6,30000000.00,    -57.91
7,35000000.00,    -50.77
8,40000000.00,    -58.82
9,45000000.00,    -50.80
10,50000000.00,    -61.22
11,55000000.00,    -53.35
12,60000000.00,    -60.15
13,65000000.00,    -53.33
14,70000000.00,    -61.48
15,75000000.00,    -53.58
16,80000000.00,    -58.98
17,85000000.00,    -52.67
18,90000000.00,    -59.37
19,95000000.00,    -53.96
20,100000000.00,    -59.56
21,105000000.00,    -52.21
22,110000000.00,    -58.57
23,115000000.00,    -53.25
24,120000000.00,    -61.16
25,125000000.00,    -50.28
26,130000000.00,    -61.92
27,135000000.00,    -54.18
28,140000000.00,    -56.62
29,145000000.00,    -52.69
30,150000000.00,    -60.09
31,155000000.00,    -51.79
32,160000000.00,    -61.39
33,165000000.00,    -53.79
34,170000000.00,    -61.14
35,175000000.00,    -53.91
36,180000000.00,    -59.23
37,185000000.00,    -54.45
38,190000000.00,    -60.02
39,195000000.00,    -51.98
40,200000000.00,    -62.50
41,205000000.00,    -55.28
42,210000000.00,    -59.36
43,215000000.00,    -54.10
44,220000000.00,    -62.37
45,225000000.00,    -53.77
46,230000000.00,    -59.07
47,235000000.00,    -52.35
48,240000000.00,    -63.34
49,245000000.00,    -53.39
50,250000000.00,    -61.70
51,255000000.00,    -52.61
52,260000000.00,    -61.03
53,265000000.00,    -53.03
54,270000000.00,    -57.57
55,275000000.00,    -54.28
56,280000000.00,    -61.81
57,285000000.00,    -53.20
58,290000000.00,    -60.46
59,295000000.00,    -53.88
60,300000000.00,    -61.43
61,305000000.00,    -52.58
62,310000000.00,    -64.02
63,315000000.00,    -50.21
64,320000000.00,    -61.10
65,325000000.00,    -53.55
66,330000000.00,    -60.36
67,335000000.00,    -53.69
68,340000000.00,    -62.09
69,345000000.00,    -53.50
70,350000000.00,    -58.33
71,355000000.00,    -53.78
72,360000000.00,    -58.35
73,365000000.00,    -52.64
74,370000000.00,    -57.33
75,375000000.00,    -51.53
76,380000000.00,    -63.64
77,385000000.00,    -53.99
78,390000000.00,    -60.34
79,395000000.00,    -52.32
80,400000000.00,    -59.28
81,405000000.00,    -53.17
82,410000000.00,    -60.10
83,415000000.00,    -54.27
84,420000000.00,    -58.47
85,425000000.00,    -53.56
86,430000000.00,    -60.15
87,435000000.00,    -53.99
88,440000000.00,    -62.96
89,445000000.00,    -52.72
90,450000000.00,    -60.33
91,455000000.00,    -51.61
92,460000000.00,    -62.04
93,465000000.00,    -52.84
94,470000000.00,    -60.75
95,475000000.00,    -53.63
96,480000000.00,    -58.65
97,485000000.00,    -53.05
98,490000000.00,    -61.31
99,495000000.00,    -53.21
100,500000000.00,    -35.37
101,505000000.00,    -33.29
102,510000000.00,    -63.31
103,515000000.00,    -50.74
104,520000000.00,    -61.12
105,525000000.00,    -52.96
106,530000000.00,    -63.45
107,535000000.00,    -52.88
108,540000000.00,    -62.21
109,545000000.00,    -51.63
110,550000000.00,    -63.61
111,555000000.00,    -52.67
112,560000000.00,    -61.51
113,565000000.00,    -51.44
114,570000000.00,    -60.49
115,575000000.00,    -52.50
116,580000000.00,    -63.24
117,585000000.00,    -52.98
118,590000000.00,    -60.36
119,595000000.00,    -52.42
120,600000000.00,    -62.52
121,605000000.00,    -51.69
122,610000000.00,    -61.17
123,615000000.00,    -53.96
124,620000000.00,    -59.30
125,625000000.00,    -54.38
126,630000000.00,    -59.83
127,635000000.00,    -53.02
128,640000000.00,    -63.61
129,645000000.00,    -52.99
130,650000000.00,    -60.20
131,655000000.00,    -52.20
132,660000000.00,    -59.15
133,665000000.00,    -53.24
134,670000000.00,    -61.60
135,675000000.00,    -52.15
136,680000000.00,    -58.11
137,685000000.00,    -54.11
138,690000000.00,    -62.10
139,695000000.00,    -54.76
140,700000000.00,    -58.68
141,705000000.00,    -51.92
142,710000000.00,    -64.61
143,715000000.00,    -55.11
144,720000000.00,    -60.65
145,725000000.00,    -53.19
146,730000000.00,    -59.19
147,735000000.00,    -54.95
148,740000000.00,    -60.87
149,745000000.00,    -53.80
150,750000000.00,    -57.02
151,755000000.00,    -53.47
152,760000000.00,    -59.76
153,765000000.00,    -54.86
154,770000000.00,    -59.10
155,775000000.00,    -53.09
156,780000000.00,    -61.29
157,785000000.00,    -52.48
158,790000000.00,    -60.32
159,795000000.00,    -52.46
160,800000000.00,    -58.96
161,805000000.00,    -53.45
162,810000000.00,    -61.90
163,815000000.00,    -52.81
164,820000000.00,    -59.20
165,825000000.00,    -54.37
166,830000000.00,    -59.52
167,835000000.00,    -53.70
168,840000000.00,    -58.85
169,845000000.00,    -53.36
170,850000000.00,    -59.44
171,855000000.00,    -53.26
172,860000000.00,    -58.43
173,865000000.00,    -53.19
174,870000000.00,    -57.99
175,875000000.00,    -52.91
176,880000000.00,    -58.69
177,885000000.00,    -54.78
178,890000000.00,    -58.85
179,895000000.00,    -51.70
180,900000000.00,    -60.74
181,905000000.00,    -54.40
182,910000000.00,    -60.88
183,915000000.00,    -52.55
184,920000000.00,    -60.10
185,925000000.00,    -51.97
186,930000000.00,    -63.70
187,935000000.00,    -51.58
188,940000000.00,    -64.05
189,945000000.00,    -52.10
190,950000000.00,    -60.07
191,955000000.00,    -52.30
192,960000000.00,    -58.39
193,965000000.00,    -53.29
194,970000000.00,    -60.66
195,975000000.00,    -52.83
196,980000000.00,    -59.92
197,985000000.00,    -53.51
198,990000000.00,    -60.32
199,995000000.00,    -53.29
200,1000000000.00,    -56.11
201,1005000000.00,    -51.85
202,1010000000.00,    -60.45
203,1015000000.00,    -53.94
204,1020000000.00,    -59.40
205,1025000000.00,    -52.70
206,1030000000.00,    -60.58
207,1035000000.00,    -54.61
208,1040000000.00,    -59.02
209,1045000000.00,    -53.41
210,1050000000.00,    -58.54
211,1055000000.00,    -53.07
212,1060000000.00,    -63.02
213,1065000000.00,    -52.31
214,1070000000.00,    -58.84
215,1075000000.00,    -52.40
216,1080000000.00,    -59.41
217,1085000000.00,    -52.19
218,1090000000.00,    -56.82
219,1095000000.00,    -53.32
220,1100000000.00,    -57.72
221,1105000000.00,    -51.89
222,1110000000.00,    -62.46
223,1115000000.00,    -52.53
224,1120000000.00,    -57.82
225,1125000000.00,    -51.67
226,1130000000.00,    -61.16
227,1135000000.00,    -52.50
228,1140000000.00,    -59.95
229,1145000000.00,    -54.01
230,1150000000.00,    -61.02
231,1155000000.00,    -52.41
232,1160000000.00,    -62.83
233,1165000000.00,    -54.15
234,1170000000.00,    -62.27
235,1175000000.00,    -51.90
236,1180000000.00,    -62.71
237,1185000000.00,    -53.15
238,1190000000.00,    -60.61
239,1195000000.00,    -53.29
240,1200000000.00,    -59.64
241,1205000000.00,    -54.57
242,1210000000.00,    -60.69
243,1215000000.00,    -50.58
244,1220000000.00,    -64.83
245,1225000000.00,    -52.50
246,1230000000.00,    -60.12
247,1235000000.00,    -51.84
248,1240000000.00,    -61.68
249,1245000000.00,    -53.94
250,1250000000.00,    -60.05
251,1255000000.00,    -53.67
252,1260000000.00,    -57.99
253,1265000000.00,    -52.97
254,1270000000.00,    -61.06
255,1275000000.00,    -53.86
256,1280000000.00,    -59.78
257,1285000000.00,    -52.88
258,1290000000.00,    -63.47
259,1295000000.00,    -53.54
260,1300000000.00,    -59.98
261,1305000000.00,    -53.91
262,1310000000.00,    -62.71
263,1315000000.00,    -55.55
264,1320000000.00,    -59.12
265,1325000000.00,    -52.48
266,1330000000.00,    -60.80
267,1335000000.00,    -53.12
268,1340000000.00,    -60.58
269,1345000000.00,    -53.52
270,1350000000.00,    -58.55
271,1355000000.00,    -53.24
272,1360000000.00,    -60.75
273,1365000000.00,    -53.90
274,1370000000.00,    -62.34
275,1375000000.00,    -53.18
276,1380000000.00,    -62.00
277,1385000000.00,    -53.44
278,1390000000.00,    -58.63
279,1395000000.00,    -53.43
280,1400000000.00,    -60.83
281,1405000000.00,    -54.17
282,1410000000.00,    -59.29
283,1415000000.00,    -52.74
284,1420000000.00,    -62.89
285,1425000000.00,    -53.54
286,1430000000.00,    -59.29
287,1435000000.00,    -52.81
288,1440000000.00,    -60.63
289,1445000000.00,    -52.14
290,1450000000.00,    -61.84
291,1455000000.00,    -51.01
292,1460000000.00,    -57.80
293,1465000000.00,    -54.03
294,1470000000.00,    -57.42
295,1475000000.00,    -51.28
296,1480000000.00,    -62.76
297,1485000000.00,    -52.97
298,1490000000.00,    -57.62
299,1495000000.00,    -51.49
300,1500000000.00,    -56.92
301,1505000000.00,    -52.14
302,1510000000.00,    -56.72
303,1515000000.00,    -50.33
304,1520000000.00,    -62.04
305,1525000000.00,    -52.87
306,1530000000.00,    -57.57
307,1535000000.00,    -52.75
308,1540000000.00,    -57.03
309,1545000000.00,    -52.30
310,1550000000.00,    -60.83
311,1555000000.00,    -51.63
312,1560000000.00,    -56.43
313,1565000000.00,    -53.03
314,1570000000.00,    -62.99
315,1575000000.00,    -52.20
316,1580000000.00,    -60.46
317,1585000000.00,    -52.31
318,1590000000.00,    -59.49
319,1595000000.00,    -54.61
320,1600000000.00,    -59.55
321,1605000000.00,    -51.54
322,1610000000.00,    -59.47
323,1615000000.00,    -52.51
324,1620000000.00,    -61.48
325,1625000000.00,    -54.28
326,1630000000.00,    -58.08
327,1635000000.00,    -51.42
328,1640000000.00,    -62.16
329,1645000000.00,    -52.39
330,1650000000.00,    -58.08
331,1655000000.00,    -53.89
332,1660000000.00,    -62.03
333,1665000000.00,    -51.72
334,1670000000.00,    -60.38
335,1675000000.00,    -52.07
336,1680000000.00,    -59.44
337,1685000000.00,    -53.16
338,1690000000.00,    -60.19
339,1695000000.00,    -52.73
340,1700000000.00,    -59.84
341,1705000000.00,    -53.96
342,1710000000.00,    -59.86
343,1715000000.00,    -52.09
344,1720000000.00,    -62.08
345,1725000000.00,    -53.19
346,1730000000.00,    -58.27
347,1735000000.00,    -53.92
348,1740000000.00,    -58.40
349,1745000000.00,    -53.28
350,1750000000.00,    -60.45
351,1755000000.00,    -51.66
352,1760000000.00,    -61.52
353,1765000000.00,    -52.29
354,1770000000.00,    -62.89
355,1775000000.00,    -53.66
356,1780000000.00,    -61.44
357,1785000000.00,    -53.19
358,1790000000.00,    -57.98
359,1795000000.00,    -52.95
360,1800000000.00,    -63.03
361,1805000000.00,    -51.73
362,1810000000.00,    -59.56
363,1815000000.00,    -54.83
364,1820000000.00,    -59.49
365,1825000000.00,    -52.96
366,1830000000.00,    -60.46
367,1835000000.00,    -52.56
368,1840000000.00,    -62.01
369,1845000000.00,    -54.83
370,1850000000.00,    -58.81
371,1855000000.00,    -52.31
372,1860000000.00,    -62.22
373,1865000000.00,    -52.99
374,1870000000.00,    -58.51
375,1875000000.00,    -52.26
376,1880000000.00,    -62.66
377,1885000000.00,    -51.20
378,1890000000.00,    -61.26
379,1895000000.00,    -53.03
380,1900000000.00,    -60.71
381,1905000000.00,    -54.12
382,1910000000.00,    -58.15
383,1915000000.00,    -52.42
384,1920000000.00,    -57.39
385,1925000000.00,    -55.07
386,1930000000.00,    -61.98
387,1935000000.00,    -53.59
388,1940000000.00,    -61.02
389,1945000000.00,    -54.62
390,1950000000.00,    -58.17
391,1955000000.00,    -51.85
392,1960000000.00,    -62.24
393,1965000000.00,    -50.87
394,1970000000.00,    -60.32
395,1975000000.00,    -52.31
396,1980000000.00,    -61.23
397,1985000000.00,    -51.88
398,1990000000.00,    -58.87
399,1995000000.00,    -52.18
400,2000000000.00,    -60.25
401,2005000000.00,    -53.15
402,2010000000.00,    -58.53
403,2015000000.00,    -52.21
404,2020000000.00,    -60.12
405,2025000000.00,    -54.81
406,2030000000.00,    -62.33
407,2035000000.00,    -50.56
408,2040000000.00,    -62.24
409,2045000000.00,    -51.69
410,2050000000.00,    -56.70
411,2055000000.00,    -50.96
412,2060000000.00,    -61.32
413,2065000000.00,    -49.32
414,2070000000.00,    -61.96
415,2075000000.00,    -54.18
416,2080000000.00,    -58.95
417,2085000000.00,    -53.15
418,2090000000.00,    -57.14
419,2095000000.00,    -52.75
420,2100000000.00,    -61.64
421,2105000000.00,    -53.77
422,2110000000.00,    -58.98
423,2115000000.00,    -52.35
424,2120000000.00,    -60.09
425,2125000000.00,    -51.58
426,2130000000.00,    -59.61
427,2135000000.00,    -52.38
428,2140000000.00,    -59.20
429,2145000000.00,    -53.11
430,2150000000.00,    -61.59
431,2155000000.00,    -53.16
432,2160000000.00,    -59.90
433,2165000000.00,    -51.79
434,2170000000.00,    -61.18
435,2175000000.00,    -51.60
436,2180000000.00,    -61.93
437,2185000000.00,    -52.72
438,2190000000.00,    -62.46
439,2195000000.00,    -50.80
440,2200000000.00,    -58.32
441,2205000000.00,    -52.15
442,2210000000.00,    -57.88
443,2215000000.00,    -53.37
444,2220000000.00,    -61.41
445,2225000000.00,    -51.30
446,2230000000.00,    -57.78
447,2235000000.00,    -52.67
448,2240000000.00,    -60.06
449,2245000000.00,    -53.05
450,2250000000.00,    -61.19
451,2255000000.00,    -53.15
452,2260000000.00,    -58.59
453,2265000000.00,    -52.02
454,2270000000.00,    -55.00
455,2275000000.00,    -51.34
456,2280000000.00,    -62.96
457,2285000000.00,    -49.98
458,2290000000.00,    -58.60
459,2295000000.00,    -51.44
460,2300000000.00,    -56.96
461,2305000000.00,    -52.09
462,2310000000.00,    -59.41
463,2315000000.00,    -52.84
464,2320000000.00,    -60.32
465,2325000000.00,    -53.73
466,2330000000.00,    -61.30
467,2335000000.00,    -52.38
468,2340000000.00,    -60.63
469,2345000000.00,    -52.19
470,2350000000.00,    -59.81
471,2355000000.00,    -50.29
472,2360000000.00,    -63.06
473,2365000000.00,    -51.78
474,2370000000.00,    -57.49
475,2375000000.00,    -51.80
476,2380000000.00,    -58.62
477,2385000000.00,    -51.44
478,2390000000.00,    -60.68
479,2395000000.00,    -53.49
480,2400000000.00,    -57.30
481,2405000000.00,    -52.42
482,2410000000.00,    -60.72
483,2415000000.00,    -51.37
484,2420000000.00,    -58.06
485,2425000000.00,    -52.65
486,2430000000.00,    -58.10
487,2435000000.00,    -51.30
488,2440000000.00,    -59.47
489,2445000000.00,    -52.48
490,2450000000.00,    -60.66
491,2455000000.00,    -52.33
492,2460000000.00,    -56.74
493,2465000000.00,    -50.05
494,2470000000.00,    -58.59
495,2475000000.00,    -51.35
496,2480000000.00,    -59.11
497,2485000000.00,    -52.30
498,2490000000.00,    -57.27
499,2495000000.00,    -52.76
500,2500000000.00,    -56.87
501,2505000000.00,    -50.21
502,2510000000.00,    -60.58
503,2515000000.00,    -53.17
504,2520000000.00,    -60.14
505,2525000000.00,    -51.48
506,2530000000.00,    -58.28
507,2535000000.00,    -51.15
508,2540000000.00,    -55.51
509,2545000000.00,    -51.29
510,2550000000.00,    -58.39
511,2555000000.00,    -52.07
512,2560000000.00,    -58.92
513,2565000000.00,    -52.34
514,2570000000.00,    -60.81
515,2575000000.00,    -51.06
516,2580000000.00,    -60.93
517,2585000000.00,    -52.03
518,2590000000.00,    -58.62
519,2595000000.00,    -53.14
520,2600000000.00,    -58.65
521,2605000000.00,    -52.11
522,2610000000.00,    -60.34
523,2615000000.00,    -50.66
524,2620000000.00,    -61.38
525,2625000000.00,    -51.06
526,2630000000.00,    -54.52
527,2635000000.00,    -50.49
528,2640000000.00,    -56.57
529,2645000000.00,    -52.50
530,2650000000.00,    -58.80
531,2655000000.00,    -52.27
532,2660000000.00,    -60.63
533,2665000000.00,    -52.40
534,2670000000.00,    -53.83
535,2675000000.00,    -50.65
536,2680000000.00,    -57.21
537,2685000000.00,    -51.73
538,2690000000.00,    -60.47
539,2695000000.00,    -51.32
540,2700000000.00,    -57.15
541,2705000000.00,    -48.87
542,2710000000.00,    -57.50
543,2715000000.00,    -50.54
544,2720000000.00,    -60.56
545,2725000000.00,    -53.08
546,2730000000.00,    -61.73
547,2735000000.00,    -51.21
548,2740000000.00,    -57.66
549,2745000000.00,    -51.52
550,2750000000.00,    -57.42
551,2755000000.00,    -52.55
552,2760000000.00,    -61.45
553,2765000000.00,    -52.62
554,2770000000.00,    -55.36
555,2775000000.00,    -51.53
556,2780000000.00,    -58.85
557,2785000000.00,    -51.00
558,2790000000.00,    -59.27
559,2795000000.00,    -52.37
560,2800000000.00,    -56.63
561,2805000000.00,    -53.31
562,2810000000.00,    -63.24
563,2815000000.00,    -52.18
564,2820000000.00,    -59.43
565,2825000000.00,    -50.04
566,2830000000.00,    -56.34
567,2835000000.00,    -51.15
568,2840000000.00,    -61.09
569,2845000000.00,    -52.70
570,2850000000.00,    -63.08
571,2855000000.00,    -51.16
572,2860000000.00,    -59.94
573,2865000000.00,    -51.96
574,2870000000.00,    -62.97
575,2875000000.00,    -53.09
576,2880000000.00,    -61.15
577,2885000000.00,    -51.88
578,2890000000.00,    -58.74
579,2895000000.00,    -52.21
580,2900000000.00,    -58.55
581,2905000000.00,    -50.96
582,2910000000.00,    -57.59
583,2915000000.00,    -52.18
584,2920000000.00,    -59.83
585,2925000000.00,    -49.20
586,2930000000.00,    -60.23
587,2935000000.00,    -51.09
588,2940000000.00,    -61.19
589,2945000000.00,    -50.28
590,2950000000.00,    -59.53
591,2955000000.00,    -52.60
592,2960000000.00,    -60.78
593,2965000000.00,    -53.58
594,2970000000.00,    -60.42
595,2975000000.00,    -50.69
596,2980000000.00,    -59.26
597,2985000000.00,    -51.14
598,2990000000.00,    -60.91
599,2995000000.00,    -49.86
600,3000000000.00,    -58.06
