Point:,Frequency(Hz),Amplitude(dBm)
0,      0.00,    -63.22
1,5000000.00,    -54.45
2,10000000.00,    -65.71
3,15000000.00,    -53.83
4,20000000.00,    -65.42
5,25000000.00,    -54.97
6,30000000.00,    -62.36
7,35000000.00,    -51.78
8,40000000.00,    -60.78
9,45000000.00,    -52.94
10,50000000.00,    -61.66
11,55000000.00,    -53.97
12,60000000.00,    -61.22
13,65000000.00,    -56.17
14,70000000.00,    -62.66
15,75000000.00,    -54.21
16,80000000.00,    -59.05
17,85000000.00,    -54.10
18,90000000.00,    -61.76
19,95000000.00,    -50.56
20,100000000.00,    -62.01
21,105000000.00,    -54.65
22,110000000.00,    -58.20
23,115000000.00,    -52.53
24,120000000.00,    -59.46
25,125000000.00,    -53.60
26,130000000.00,    -58.35
27,135000000.00,    -53.50
28,140000000.00,    -57.96
29,145000000.00,    -53.04
30,150000000.00,    -61.37
31,155000000.00,    -53.51
32,160000000.00,    -59.78
33,165000000.00,    -52.99
34,170000000.00,    -59.95
35,175000000.00,    -53.31
36,180000000.00,    -61.83
37,185000000.00,    -54.69
38,190000000.00,    -59.20
39,195000000.00,    -53.71
40,200000000.00,    -56.12
41,205000000.00,    -54.26
42,210000000.00,    -58.21
43,215000000.00,    -53.33
44,220000000.00,    -61.30
45,225000000.00,    -54.04
46,230000000.00,    -62.47
47,235000000.00,    -53.34
48,240000000.00,    -58.57
49,245000000.00,    -52.21
50,250000000.00,    -59.95
51,255000000.00,    -52.08
52,260000000.00,    -62.10
53,265000000.00,    -51.57
54,270000000.00,    -57.86
55,275000000.00,    -52.89
56,280000000.00,    -62.74
57,285000000.00,    -52.47
58,290000000.00,    -60.70
59,295000000.00,    -53.93
60,300000000.00,    -61.55
61,305000000.00,    -53.65
62,310000000.00,    -59.66
63,315000000.00,    -52.05
64,320000000.00,    -60.56
65,325000000.00,    -52.42
66,330000000.00,    -60.68
67,335000000.00,    -51.98
68,340000000.00,    -62.35
69,345000000.00,    -51.82
70,350000000.00,    -63.24
71,355000000.00,    -53.79
72,360000000.00,    -59.48
73,365000000.00,    -51.26
74,370000000.00,    -62.83
75,375000000.00,    -52.39
76,380000000.00,    -59.65
77,385000000.00,    -52.70
78,390000000.00,    -61.48
79,395000000.00,    -52.87
80,400000000.00,    -63.14
81,405000000.00,    -53.83
82,410000000.00,    -62.24
83,415000000.00,    -53.13
84,420000000.00,    -59.14
85,425000000.00,    -54.53
86,430000000.00,    -58.20
87,435000000.00,    -52.48
88,440000000.00,    -57.23
89,445000000.00,    -54.04
90,450000000.00,    -66.12
91,455000000.00,    -54.49
92,460000000.00,    -60.43
93,465000000.00,    -52.62
94,470000000.00,    -62.20
95,475000000.00,    -55.33
96,480000000.00,    -60.00
97,485000000.00,    -52.49
98,490000000.00,    -58.73
99,495000000.00,    -52.89
100,500000000.00,    -37.25
101,505000000.00,    -36.16
102,510000000.00,    -58.35
103,515000000.00,    -53.39
104,520000000.00,    -61.22
105,525000000.00,    -53.89
106,530000000.00,    -61.86
107,535000000.00,    -53.63
108,540000000.00,    -63.83
109,545000000.00,    -54.38
110,550000000.00,    -64.61
111,555000000.00,    -54.02
112,560000000.00,    -62.62
113,565000000.00,    -52.92
114,570000000.00,    -59.45
115,575000000.00,    -53.27
116,580000000.00,    -60.88
117,585000000.00,    -52.05
118,590000000.00,    -57.95
119,595000000.00,    -53.68
120,600000000.00,    -59.17
121,605000000.00,    -53.28
122,610000000.00,    -62.47
123,615000000.00,    -54.76
124,620000000.00,    -58.84
125,625000000.00,    -52.03
126,630000000.00,    -61.75
127,635000000.00,    -54.08
128,640000000.00,    -62.53
129,645000000.00,    -52.50
130,650000000.00,    -63.06
131,655000000.00,    -53.99
132,660000000.00,    -57.14
133,665000000.00,    -53.04
134,670000000.00,    -58.86
135,675000000.00,    -53.56
136,680000000.00,    -65.65
137,685000000.00,    -53.87
138,690000000.00,    -62.95
139,695000000.00,    -54.04
140,700000000.00,    -52.37
141,705000000.00,    -50.00
142,710000000.00,    -62.33
143,715000000.00,    -53.82
144,720000000.00,    -60.03
145,725000000.00,    -54.14
146,730000000.00,    -58.98
147,735000000.00,    -52.80
148,740000000.00,    -56.01
149,745000000.00,    -52.73
150,750000000.00,    -60.88
151,755000000.00,    -53.52
152,760000000.00,    -61.48
153,765000000.00,    -52.27
154,770000000.00,    -58.30
155,775000000.00,    -52.72
156,780000000.00,    -61.32
157,785000000.00,    -53.87
158,790000000.00,    -59.13
159,795000000.00,    -54.70
160,800000000.00,    -63.74
161,805000000.00,    -52.70
162,810000000.00,    -58.75
163,815000000.00,    -53.19
164,820000000.00,    -63.52
165,825000000.00,    -51.93
166,830000000.00,    -62.88
167,835000000.00,    -53.65
168,840000000.00,    -60.36
169,845000000.00,    -51.77
170,850000000.00,    -56.64
171,855000000.00,    -51.74
172,860000000.00,    -60.78
173,865000000.00,    -53.56
174,870000000.00,    -59.19
175,875000000.00,    -52.49
176,880000000.00,    -59.06
177,885000000.00,    -52.67
178,890000000.00,    -59.34
179,895000000.00,    -52.89
180,900000000.00,    -60.68
181,905000000.00,    -52.39
182,910000000.00,    -62.37
183,915000000.00,    -51.02
184,920000000.00,    -59.85
185,925000000.00,    -53.82
186,930000000.00,    -58.05
187,935000000.00,    -52.57
188,940000000.00,    -59.36
189,945000000.00,    -53.40
190,950000000.00,    -62.93
191,955000000.00,    -53.91
192,960000000.00,    -60.31
193,965000000.00,    -51.98
194,970000000.00,    -61.28
195,975000000.00,    -53.42
196,980000000.00,    -60.97
197,985000000.00,    -51.91
198,990000000.00,    -61.98
199,995000000.00,    -53.96
200,1000000000.00,    -64.88
201,1005000000.00,    -52.53
202,1010000000.00,    -56.81
203,1015000000.00,    -50.68
204,1020000000.00,    -60.94
205,1025000000.00,    -52.07
206,1030000000.00,    -59.33
207,1035000000.00,    -53.36
208,1040000000.00,    -60.86
209,1045000000.00,    -53.52
210,1050000000.00,    -57.91
211,1055000000.00,    -51.84
212,1060000000.00,    -58.85
213,1065000000.00,    -52.27
214,1070000000.00,    -61.45
215,1075000000.00,    -52.69
216,1080000000.00,    -59.59
217,1085000000.00,    -51.75
218,1090000000.00,    -60.45
219,1095000000.00,    -52.74
220,1100000000.00,    -59.57
221,1105000000.00,    -51.26
222,1110000000.00,    -62.24
223,1115000000.00,    -53.21
224,1120000000.00,    -60.23
225,1125000000.00,    -52.82
226,1130000000.00,    -60.01
227,1135000000.00,    -52.31
228,1140000000.00,    -61.05
229,1145000000.00,    -51.68
230,1150000000.00,    -59.89
231,1155000000.00,    -53.17
232,1160000000.00,    -61.51
233,1165000000.00,    -53.64
234,1170000000.00,    -62.58
235,1175000000.00,    -54.85
236,1180000000.00,    -61.62
237,1185000000.00,    -52.44
238,1190000000.00,    -61.37
239,1195000000.00,    -52.35
240,1200000000.00,    -59.12
241,1205000000.00,    -51.87
242,1210000000.00,    -60.55
243,1215000000.00,    -53.20
244,1220000000.00,    -59.70
245,1225000000.00,    -53.58
246,1230000000.00,    -60.00
247,1235000000.00,    -51.83
248,1240000000.00,    -63.98
249,1245000000.00,    -54.39
250,1250000000.00,    -60.90
251,1255000000.00,    -50.48
252,1260000000.00,    -62.13
253,1265000000.00,    -53.16
254,1270000000.00,    -63.75
255,1275000000.00,    -52.92
256,1280000000.00,    -63.06
257,1285000000.00,    -53.34
258,1290000000.00,    -64.36
259,1295000000.00,    -53.54
260,1300000000.00,    -61.05
261,1305000000.00,    -53.82
262,1310000000.00,    -60.71
263,1315000000.00,    -52.12
264,1320000000.00,    -62.68
265,1325000000.00,    -54.29
266,1330000000.00,    -59.66
267,1335000000.00,    -53.10
268,1340000000.00,    -62.01
269,1345000000.00,    -53.69
270,1350000000.00,    -61.70
271,1355000000.00,    -54.39
272,1360000000.00,    -60.95
273,1365000000.00,    -51.98
274,1370000000.00,    -60.69
275,1375000000.00,    -53.26
276,1380000000.00,    -59.73
277,1385000000.00,    -52.56
278,1390000000.00,    -62.25
279,1395000000.00,    -54.97
280,1400000000.00,    -62.10
281,1405000000.00,    -53.38
282,1410000000.00,    -60.56
283,1415000000.00,    -55.40
284,1420000000.00,    -57.95
285,1425000000.00,    -52.80
286,1430000000.00,    -60.56
287,1435000000.00,    -54.19
288,1440000000.00,    -58.83
289,1445000000.00,    -51.24
290,1450000000.00,    -56.31
291,1455000000.00,    -52.93
292,1460000000.00,    -60.37
293,1465000000.00,    -52.90
294,1470000000.00,    -61.33
295,1475000000.00,    -53.07
296,1480000000.00,    -58.16
297,1485000000.00,    -53.26
298,1490000000.00,    -60.42
299,1495000000.00,    -51.06
300,1500000000.00,    -62.30
301,1505000000.00,    -53.80
302,1510000000.00,    -57.39
303,1515000000.00,    -52.64
304,1520000000.00,    -64.12
305,1525000000.00,    -54.99
306,1530000000.00,    -58.38
307,1535000000.00,    -51.29
308,1540000000.00,    -61.05
309,1545000000.00,    -52.92
310,1550000000.00,    -58.09
311,1555000000.00,    -52.29
312,1560000000.00,    -60.06
313,1565000000.00,    -53.21
314,1570000000.00,    -57.97
315,1575000000.00,    -52.29
316,1580000000.00,    -60.43
317,1585000000.00,    -53.63
318,1590000000.00,    -55.46
319,1595000000.00,    -53.61
320,1600000000.00,    -58.43
321,1605000000.00,    -53.16
322,1610000000.00,    -59.56
323,1615000000.00,    -52.79
324,1620000000.00,    -60.19
325,1625000000.00,    -53.34
326,1630000000.00,    -61.57
327,1635000000.00,    -52.91
328,1640000000.00,    -61.30
329,1645000000.00,    -53.55
330,1650000000.00,    -62.41
331,1655000000.00,    -51.60
332,1660000000.00,    -61.17
333,1665000000.00,    -53.06
334,1670000000.00,    -59.08
335,1675000000.00,    -51.71
336,1680000000.00,    -61.43
337,1685000000.00,    -52.54
338,1690000000.00,    -62.34
339,1695000000.00,    -52.65
340,1700000000.00,    -58.65
341,1705000000.00,    -51.04
342,1710000000.00,    -58.46
343,1715000000.00,    -53.84
344,1720000000.00,    -58.28
345,1725000000.00,    -52.39
346,1730000000.00,    -61.99
347,1735000000.00,    -53.12
348,1740000000.00,    -62.92
349,1745000000.00,    -52.68
350,1750000000.00,    -58.18
351,1755000000.00,    -53.43
352,1760000000.00,    -61.30
353,1765000000.00,    -52.48
354,1770000000.00,    -60.38
355,1775000000.00,    -50.80
356,1780000000.00,    -57.48
357,1785000000.00,    -52.83
358,1790000000.00,    -58.71
359,1795000000.00,    -53.35
360,1800000000.00,    -62.35
361,1805000000.00,    -51.29
362,1810000000.00,    -63.31
363,1815000000.00,    -54.14
364,1820000000.00,    -58.83
365,1825000000.00,    -53.57
366,1830000000.00,    -59.54
367,1835000000.00,    -52.66
368,1840000000.00,    -61.10
369,1845000000.00,    -52.19
370,1850000000.00,    -63.60
371,1855000000.00,    -53.56
372,1860000000.00,    -60.49
373,1865000000.00,    -52.42
374,1870000000.00,    -60.59
375,1875000000.00,    -52.11
376,1880000000.00,    -58.51
377,1885000000.00,    -54.45
378,1890000000.00,    -62.67
379,1895000000.00,    -52.19
380,1900000000.00,    -61.89
381,1905000000.00,    -51.67
382,1910000000.00,    -57.56
383,1915000000.00,    -52.48
384,1920000000.00,    -63.21
385,1925000000.00,    -52.35
386,1930000000.00,    -61.29
387,1935000000.00,    -51.65
388,1940000000.00,    -58.46
389,1945000000.00,    -53.07
390,1950000000.00,    -59.21
391,1955000000.00,    -52.50
392,1960000000.00,    -59.28
393,1965000000.00,    -52.04
394,1970000000.00,    -61.87
395,1975000000.00,    -51.30
396,1980000000.00,    -60.82
397,1985000000.00,    -50.93
398,1990000000.00,    -58.65
399,1995000000.00,    -52.23
400,2000000000.00,    -58.07
401,2005000000.00,    -52.68
402,2010000000.00,    -59.47
403,2015000000.00,    -53.55
404,2020000000.00,    -61.35
405,2025000000.00,    -53.00
406,2030000000.00,    -59.02
407,2035000000.00,    -52.43
408,2040000000.00,    -61.31
409,2045000000.00,    -51.09
410,2050000000.00,    -57.90
411,2055000000.00,    -53.63
412,2060000000.00,    -57.31
413,2065000000.00,    -52.61
414,2070000000.00,    -58.17
415,2075000000.00,    -53.58
416,2080000000.00,    -59.23
417,2085000000.00,    -53.37
418,2090000000.00,    -60.07
419,2095000000.00,    -53.28
420,2100000000.00,    -59.94
421,2105000000.00,    -50.74
422,2110000000.00,    -59.38
423,2115000000.00,    -50.86
424,2120000000.00,    -59.80
425,2125000000.00,    -52.70
426,2130000000.00,    -59.18
427,2135000000.00,    -52.38
428,2140000000.00,    -60.58
429,2145000000.00,    -51.91
430,2150000000.00,    -63.27
431,2155000000.00,    -51.74
432,2160000000.00,    -59.46
433,2165000000.00,    -53.90
434,2170000000.00,    -58.31
435,2175000000.00,    -52.37
436,2180000000.00,    -56.08
437,2185000000.00,    -50.09
438,2190000000.00,    -60.15
439,2195000000.00,    -51.50
440,2200000000.00,    -58.16
441,2205000000.00,    -52.67
442,2210000000.00,    -59.78
443,2215000000.00,    -52.99
444,2220000000.00,    -62.29
445,2225000000.00,    -52.27
446,2230000000.00,    -59.15
447,2235000000.00,    -51.82
448,2240000000.00,    -57.32
449,2245000000.00,    -51.08
450,2250000000.00,    -58.39
451,2255000000.00,    -52.11
452,2260000000.00,    -59.36
453,2265000000.00,    -53.22
454,2270000000.00,    -59.76
455,2275000000.00,    -50.91
456,2280000000.00,    -57.98
457,2285000000.00,    -51.54
458,2290000000.00,    -61.06
459,2295000000.00,    -50.40
460,2300000000.00,    -59.83
461,2305000000.00,    -51.99
462,2310000000.00,    -58.34
463,2315000000.00,    -50.62
464,2320000000.00,    -60.17
465,2325000000.00,    -52.24
466,2330000000.00,    -59.33
467,2335000000.00,    -51.86
468,2340000000.00,    -60.02
469,2345000000.00,    -50.83
470,2350000000.00,    -58.62
471,2355000000.00,    -52.12
472,2360000000.00,    -55.75
473,2365000000.00,    -51.48
474,2370000000.00,    -59.52
475,2375000000.00,    -53.33
476,2380000000.00,    -62.15
477,2385000000.00,    -51.25
478,2390000000.00,    -54.87
479,2395000000.00,    -53.12
480,2400000000.00,    -57.31
481,2405000000.00,    -52.38
482,2410000000.00,    -58.81
483,2415000000.00,    -51.35
484,2420000000.00,    -59.79
485,2425000000.00,    -52.03
486,2430000000.00,    -58.57
487,2435000000.00,    -52.48
488,2440000000.00,    -58.39
489,2445000000.00,    -52.05
490,2450000000.00,    -56.94
491,2455000000.00,    -52.78
492,2460000000.00,    -57.84
493,2465000000.00,    -51.29
494,2470000000.00,    -58.16
495,2475000000.00,    -51.75
496,2480000000.00,    -61.26
497,2485000000.00,    -51.44
498,2490000000.00,    -55.01
499,2495000000.00,    -49.68
500,2500000000.00,    -57.16
501,2505000000.00,    -52.32
502,2510000000.00,    -57.13
503,2515000000.00,    -51.61
504,2520000000.00,    -58.08
505,2525000000.00,    -50.88
506,2530000000.00,    -59.13
507,2535000000.00,    -51.61
508,2540000000.00,    -60.12
509,2545000000.00,    -53.45
510,2550000000.00,    -58.65
511,2555000000.00,    -50.40
512,2560000000.00,    -56.02
513,2565000000.00,    -51.87
514,2570000000.00,    -60.36
515,2575000000.00,    -50.68
516,2580000000.00,    -58.33
517,2585000000.00,    -52.56
518,2590000000.00,    -58.00
519,2595000000.00,    -52.74
520,2600000000.00,    -57.96
521,2605000000.00,    -52.45
522,2610000000.00,    -56.78
523,2615000000.00,    -52.12
524,2620000000.00,    -57.62
525,2625000000.00,    -52.62
526,2630000000.00,    -61.38
527,2635000000.00,    -52.29
528,2640000000.00,    -60.81
529,2645000000.00,    -51.93
530,2650000000.00,    -58.28
531,2655000000.00,    -52.27
532,2660000000.00,    -63.67
533,2665000000.00,    -51.99
534,2670000000.00,    -57.07
535,2675000000.00,    -52.27
536,2680000000.00,    -59.12
537,2685000000.00,    -51.21
538,2690000000.00,    -59.59
539,2695000000.00,    -53.18
540,2700000000.00,    -60.19
541,2705000000.00,    -52.32
542,2710000000.00,    -58.68
543,2715000000.00,    -50.59
544,2720000000.00,    -56.45
545,2725000000.00,    -51.73
546,2730000000.00,    -60.64
547,2735000000.00,    -52.81
548,2740000000.00,    -59.11
549,2745000000.00,    -52.20
550,2750000000.00,    -57.80
551,2755000000.00,    -51.81
552,2760000000.00,    -59.58
553,2765000000.00,    -52.42
554,2770000000.00,    -58.77
555,2775000000.00,    -51.17
556,2780000000.00,    -58.70
557,2785000000.00,    -50.24
558,2790000000.00,    -61.83
559,2795000000.00,    -52.00
560,2800000000.00,    -55.34
561,2805000000.00,    -52.12
562,2810000000.00,    -58.93
563,2815000000.00,    -52.51
564,2820000000.00,    -60.72
565,2825000000.00,    -52.30
566,2830000000.00,    -59.92
567,2835000000.00,    -51.46
568,2840000000.00,    -60.61
569,2845000000.00,    -50.70
570,2850000000.00,    -55.81
571,2855000000.00,    -52.62
572,2860000000.00,    -61.79
573,2865000000.00,    -52.19
574,2870000000.00,    -59.57
575,2875000000.00,    -51.29
576,2880000000.00,    -59.02
577,2885000000.00,    -50.39
578,2890000000.00,    -58.07
579,2895000000.00,    -51.61
580,2900000000.00,    -61.89
581,2905000000.00,    -50.95
582,2910000000.00,    -59.85
583,2915000000.00,    -50.22
584,2920000000.00,    -61.12
585,2925000000.00,    -51.20
586,2930000000.00,    -61.31
587,2935000000.00,    -51.07
588,2940000000.00,    -58.21
589,2945000000.00,    -51.79
590,2950000000.00,    -63.45
591,2955000000.00,    -52.09
592,2960000000.00,    -60.18
593,2965000000.00,    -51.65
594,2970000000.00,    -57.29
595,2975000000.00,    -51.80
596,2980000000.00,    -59.04
597,2985000000.00,    -50.05
598,2990000000.00,    -59.26
599,2995000000.00,    -51.01
600,3000000000.00,    -59.15
