Point:,Frequency(Hz),Amplitude(dBm)
0,      0.00,    -61.48
1,5000000.00,    -53.00
2,10000000.00,    -61.16
3,15000000.00,    -51.62
4,20000000.00,    -60.45
5,25000000.00,    -53.69
6,30000000.00,    -59.41
7,35000000.00,    -52.36
8,40000000.00,    -60.02
9,45000000.00,    -51.14
10,50000000.00,    -61.31
11,55000000.00,    -54.20
12,60000000.00,    -59.37
13,65000000.00,    -52.67
14,70000000.00,    -59.64
15,75000000.00,    -53.38
16,80000000.00,    -61.51
17,85000000.00,    -53.02
18,90000000.00,    -61.36
19,95000000.00,    -54.03
20,100000000.00,    -58.02
21,105000000.00,    -53.87
22,110000000.00,    -61.53
23,115000000.00,    -53.86
24,120000000.00,    -60.37
25,125000000.00,    -53.48
26,130000000.00,    -60.80
27,135000000.00,    -51.92
28,140000000.00,    -59.66
29,145000000.00,    -51.76
30,150000000.00,    -58.40
31,155000000.00,    -54.28
32,160000000.00,    -60.14
33,165000000.00,    -55.08
34,170000000.00,    -58.08
35,175000000.00,    -53.50
36,180000000.00,    -59.71
37,185000000.00,    -53.66
38,190000000.00,    -59.73
39,195000000.00,    -53.00
40,200000000.00,    -58.89
41,205000000.00,    -52.68
42,210000000.00,    -65.94
43,215000000.00,    -53.03
44,220000000.00,    -64.08
45,225000000.00,    -53.64
46,230000000.00,    -62.71
47,235000000.00,    -53.20
48,240000000.00,    -60.69
49,245000000.00,    -54.45
50,250000000.00,    -59.18
51,255000000.00,    -52.38
52,260000000.00,    -60.32
53,265000000.00,    -54.78
54,270000000.00,    -59.63
55,275000000.00,    -54.52
56,280000000.00,    -58.56
57,285000000.00,    -53.57
58,290000000.00,    -57.84
59,295000000.00,    -55.26
60,300000000.00,    -57.47
61,305000000.00,    -53.18
62,310000000.00,    -62.34
63,315000000.00,    -55.13
64,320000000.00,    -61.39
65,325000000.00,    -51.85
66,330000000.00,    -56.72
67,335000000.00,    -54.71
68,340000000.00,    -61.28
69,345000000.00,    -54.02
70,350000000.00,    -63.49
71,355000000.00,    -52.72
72,360000000.00,    -57.46
73,365000000.00,    -54.45
74,370000000.00,    -61.68
75,375000000.00,    -53.10
76,380000000.00,    -56.98
77,385000000.00,    -52.94
78,390000000.00,    -59.66
79,395000000.00,    -54.45
80,400000000.00,    -60.66
81,405000000.00,    -50.36
82,410000000.00,    -62.65
83,415000000.00,    -51.59
84,420000000.00,    -61.28
85,425000000.00,    -55.59
86,430000000.00,    -62.44
87,435000000.00,    -53.95
88,440000000.00,    -60.50
89,445000000.00,    -53.49
90,450000000.00,    -59.83
91,455000000.00,    -51.75
92,460000000.00,    -62.61
93,465000000.00,    -52.89
94,470000000.00,    -61.69
95,475000000.00,    -52.91
96,480000000.00,    -58.41
97,485000000.00,    -52.61
98,490000000.00,    -59.94
99,495000000.00,    -55.80
100,500000000.00,    -43.49
101,505000000.00,    -40.69
102,510000000.00,    -59.29
103,515000000.00,    -54.06
104,520000000.00,    -61.27
105,525000000.00,    -53.72
106,530000000.00,    -60.21
107,535000000.00,    -54.46
108,540000000.00,    -63.06
109,545000000.00,    -54.77
110,550000000.00,    -65.96
111,555000000.00,    -52.37
112,560000000.00,    -59.71
113,565000000.00,    -53.40
114,570000000.00,    -62.67
115,575000000.00,    -52.43
116,580000000.00,    -62.14
117,585000000.00,    -53.88
118,590000000.00,    -58.86
119,595000000.00,    -51.79
120,600000000.00,    -62.66
121,605000000.00,    -52.99
122,610000000.00,    -62.96
123,615000000.00,    -53.33
124,620000000.00,    -59.61
125,625000000.00,    -53.75
126,630000000.00,    -64.20
127,635000000.00,    -53.37
128,640000000.00,    -62.01
129,645000000.00,    -54.82
130,650000000.00,    -57.46
131,655000000.00,    -53.24
132,660000000.00,    -62.09
133,665000000.00,    -54.00
134,670000000.00,    -64.02
135,675000000.00,    -54.55
136,680000000.00,    -58.98
137,685000000.00,    -53.42
138,690000000.00,    -58.04
139,695000000.00,    -53.83
140,700000000.00,    -63.35
141,705000000.00,    -54.86
142,710000000.00,    -60.70
143,715000000.00,    -54.53
144,720000000.00,    -63.65
145,725000000.00,    -54.84
146,730000000.00,    -60.45
147,735000000.00,    -52.60
148,740000000.00,    -59.52
149,745000000.00,    -50.98
150,750000000.00,    -61.40
151,755000000.00,    -53.19
152,760000000.00,    -60.09
153,765000000.00,    -53.54
154,770000000.00,    -59.96
155,775000000.00,    -52.96
156,780000000.00,    -60.32
157,785000000.00,    -51.80
158,790000000.00,    -60.84
159,795000000.00,    -53.85
160,800000000.00,    -56.44
161,805000000.00,    -52.52
162,810000000.00,    -60.54
163,815000000.00,    -52.80
164,820000000.00,    -61.02
165,825000000.00,    -53.50
166,830000000.00,    -61.96
167,835000000.00,    -54.27
168,840000000.00,    -58.68
169,845000000.00,    -52.88
170,850000000.00,    -62.61
171,855000000.00,    -54.05
172,860000000.00,    -60.27
173,865000000.00,    -52.51
174,870000000.00,    -61.84
175,875000000.00,    -51.66
176,880000000.00,    -59.89
177,885000000.00,    -52.94
178,890000000.00,    -57.55
179,895000000.00,    -52.09
180,900000000.00,    -59.89
181,905000000.00,    -51.40
182,910000000.00,    -59.99
183,915000000.00,    -51.73
184,920000000.00,    -62.81
185,925000000.00,    -53.41
186,930000000.00,    -57.43
187,935000000.00,    -51.82
188,940000000.00,    -56.41
189,945000000.00,    -53.70
190,950000000.00,    -59.61
191,955000000.00,    -53.10
192,960000000.00,    -59.41
193,965000000.00,    -53.64
194,970000000.00,    -59.52
195,975000000.00,    -51.39
196,980000000.00,    -59.49
197,985000000.00,    -51.76
198,990000000.00,    -60.78
199,995000000.00,    -53.40
200,1000000000.00,    -59.41
201,1005000000.00,    -54.06
202,1010000000.00,    -59.86
203,1015000000.00,    -54.30
204,1020000000.00,    -57.56
205,1025000000.00,    -53.40
206,1030000000.00,    -58.94
207,1035000000.00,    -52.60
208,1040000000.00,    -61.75
209,1045000000.00,    -55.62
210,1050000000.00,    -61.19
211,1055000000.00,    -52.32
212,1060000000.00,    -62.64
213,1065000000.00,    -54.46
214,1070000000.00,    -60.32
215,1075000000.00,    -53.02
216,1080000000.00,    -58.14
217,1085000000.00,    -54.16
218,1090000000.00,    -58.56
219,1095000000.00,    -51.67
220,1100000000.00,    -56.10
221,1105000000.00,    -52.87
222,1110000000.00,    -63.30
223,1115000000.00,    -52.84
224,1120000000.00,    -62.77
225,1125000000.00,    -53.67
226,1130000000.00,    -59.36
227,1135000000.00,    -53.45
228,1140000000.00,    -61.51
229,1145000000.00,    -52.30
230,1150000000.00,    -61.25
231,1155000000.00,    -52.92
232,1160000000.00,    -60.22
233,1165000000.00,    -54.61
234,1170000000.00,    -59.48
235,1175000000.00,    -53.22
236,1180000000.00,    -58.79
237,1185000000.00,    -52.88
238,1190000000.00,    -61.01
239,1195000000.00,    -51.47
240,1200000000.00,    -57.89
241,1205000000.00,    -54.35
242,1210000000.00,    -62.33
243,1215000000.00,    -50.75
244,1220000000.00,    -59.81
245,1225000000.00,    -52.36
246,1230000000.00,    -57.21
247,1235000000.00,    -52.44
248,1240000000.00,    -61.91
249,1245000000.00,    -54.13
250,1250000000.00,    -62.98
251,1255000000.00,    -54.72
252,1260000000.00,    -58.16
253,1265000000.00,    -52.10
254,1270000000.00,    -58.88
255,1275000000.00,    -50.17
256,1280000000.00,    -57.43
257,1285000000.00,    -52.96
258,1290000000.00,    -57.77
259,1295000000.00,    -53.51
260,1300000000.00,    -63.31
261,1305000000.00,    -53.16
262,1310000000.00,    -56.42
263,1315000000.00,    -54.34
264,1320000000.00,    -57.73
265,1325000000.00,    -52.80
266,1330000000.00,    -60.33
267,1335000000.00,    -54.13
268,1340000000.00,    -63.81
269,1345000000.00,    -51.74
270,1350000000.00,    -61.16
271,1355000000.00,    -51.19
272,1360000000.00,    -59.46
273,1365000000.00,    -54.34
274,1370000000.00,    -60.39
275,1375000000.00,    -53.69
276,1380000000.00,    -60.95
277,1385000000.00,    -53.44
278,1390000000.00,    -62.56
279,1395000000.00,    -52.56
280,1400000000.00,    -62.66
281,1405000000.00,    -50.41
282,1410000000.00,    -59.46
283,1415000000.00,    -52.98
284,1420000000.00,    -55.66
285,1425000000.00,    -53.24
286,1430000000.00,    -59.62
287,1435000000.00,    -53.58
288,1440000000.00,    -61.19
289,1445000000.00,    -51.59
290,1450000000.00,    -61.96
291,1455000000.00,    -54.38
292,1460000000.00,    -57.94
293,1465000000.00,    -52.82
294,1470000000.00,    -56.52
295,1475000000.00,    -50.49
296,1480000000.00,    -60.09
297,1485000000.00,    -51.95
298,1490000000.00,    -61.34
299,1495000000.00,    -52.56
300,1500000000.00,    -61.55
301,1505000000.00,    -53.24
302,1510000000.00,    -60.62
303,1515000000.00,    -53.57
304,1520000000.00,    -57.19
305,1525000000.00,    -50.31
306,1530000000.00,    -60.41
307,1535000000.00,    -53.69
308,1540000000.00,    -59.31
309,1545000000.00,    -50.49
310,1550000000.00,    -59.45
311,1555000000.00,    -53.27
312,1560000000.00,    -58.50
313,1565000000.00,    -53.22
314,1570000000.00,    -58.69
315,1575000000.00,    -51.18
316,1580000000.00,    -59.15
317,1585000000.00,    -53.20
318,1590000000.00,    -59.37
319,1595000000.00,    -53.93
320,1600000000.00,    -62.10
321,1605000000.00,    -52.10
322,1610000000.00,    -60.07
323,1615000000.00,    -52.65
324,1620000000.00,    -59.23
325,1625000000.00,    -53.06
326,1630000000.00,    -60.65
327,1635000000.00,    -51.13
328,1640000000.00,    -60.02
329,1645000000.00,    -53.85
330,1650000000.00,    -60.19
331,1655000000.00,    -51.39
332,1660000000.00,    -59.22
333,1665000000.00,    -53.00
334,1670000000.00,    -59.13
335,1675000000.00,    -53.36
336,1680000000.00,    -57.92
337,1685000000.00,    -52.04
338,1690000000.00,    -59.75
339,1695000000.00,    -54.43
340,1700000000.00,    -58.54
341,1705000000.00,    -51.74
342,1710000000.00,    -61.39
343,1715000000.00,    -51.46
344,1720000000.00,    -58.93
345,1725000000.00,    -52.00
346,1730000000.00,    -62.93
347,1735000000.00,    -51.94
348,1740000000.00,    -57.06
349,1745000000.00,    -51.90
350,1750000000.00,    -58.71
351,1755000000.00,    -54.25
352,1760000000.00,    -62.45
353,1765000000.00,    -52.41
354,1770000000.00,    -59.46
355,1775000000.00,    -53.92
356,1780000000.00,    -56.06
357,1785000000.00,    -51.25
358,1790000000.00,    -62.25
359,1795000000.00,    -53.79
360,1800000000.00,    -59.12
361,1805000000.00,    -53.12
362,1810000000.00,    -58.28
363,1815000000.00,    -51.43
364,1820000000.00,    -62.32
365,1825000000.00,    -53.66
366,1830000000.00,    -63.06
367,1835000000.00,    -52.86
368,1840000000.00,    -63.21
369,1845000000.00,    -52.42
370,1850000000.00,    -62.02
371,1855000000.00,    -52.29
372,1860000000.00,    -60.78
373,1865000000.00,    -52.18
374,1870000000.00,    -61.22
375,1875000000.00,    -50.65
376,1880000000.00,    -60.96
377,1885000000.00,    -53.19
378,1890000000.00,    -58.15
379,1895000000.00,    -54.31
380,1900000000.00,    -59.90
381,1905000000.00,    -53.91
382,1910000000.00,    -60.15
383,1915000000.00,    -52.29
384,1920000000.00,    -62.25
385,1925000000.00,    -51.47
386,1930000000.00,    -58.77
387,1935000000.00,    -52.94
388,1940000000.00,    -60.49
389,1945000000.00,    -53.64
390,1950000000.00,    -56.21
391,1955000000.00,    -53.10
392,1960000000.00,    -56.53
393,1965000000.00,    -52.09
394,1970000000.00,    -60.73
395,1975000000.00,    -51.90
396,1980000000.00,    -61.28
397,1985000000.00,    -52.77
398,1990000000.00,    -61.54
399,1995000000.00,    -51.71
400,2000000000.00,    -61.02
401,2005000000.00,    -54.15
402,2010000000.00,    -60.70
403,2015000000.00,    -52.45
404,2020000000.00,    -59.86
405,2025000000.00,    -52.21
406,2030000000.00,    -62.56
407,2035000000.00,    -50.85
408,2040000000.00,    -58.50
409,2045000000.00,    -52.63
410,2050000000.00,    -60.11
411,2055000000.00,    -54.04
412,2060000000.00,    -60.49
413,2065000000.00,    -52.93
414,2070000000.00,    -61.28
415,2075000000.00,    -50.54
416,2080000000.00,    -58.65
417,2085000000.00,    -52.64
418,2090000000.00,    -59.87
419,2095000000.00,    -52.61
420,2100000000.00,    -58.61
421,2105000000.00,    -53.18
422,2110000000.00,    -61.66
423,2115000000.00,    -52.73
424,2120000000.00,    -59.52
425,2125000000.00,    -53.62
426,2130000000.00,    -57.28
427,2135000000.00,    -53.05
428,2140000000.00,    -60.13
429,2145000000.00,    -52.62
430,2150000000.00,    -56.08
431,2155000000.00,    -52.30
432,2160000000.00,    -58.21
433,2165000000.00,    -51.43
434,2170000000.00,    -57.05
435,2175000000.00,    -52.95
436,2180000000.00,    -60.23
437,2185000000.00,    -51.33
438,2190000000.00,    -61.88
439,2195000000.00,    -52.79
440,2200000000.00,    -59.30
441,2205000000.00,    -52.86
442,2210000000.00,    -60.97
443,2215000000.00,    -50.91
444,2220000000.00,    -59.33
445,2225000000.00,    -53.15
446,2230000000.00,    -57.82
447,2235000000.00,    -51.20
448,2240000000.00,    -55.60
449,2245000000.00,    -49.97
450,2250000000.00,    -58.10
451,2255000000.00,    -51.16
452,2260000000.00,    -60.81
453,2265000000.00,    -51.31
454,2270000000.00,    -59.26
455,2275000000.00,    -52.36
456,2280000000.00,    -59.54
457,2285000000.00,    -53.01
458,2290000000.00,    -59.78
459,2295000000.00,    -53.04
460,2300000000.00,    -59.76
461,2305000000.00,    -51.80
462,2310000000.00,    -62.80
463,2315000000.00,    -52.54
464,2320000000.00,    -54.93
465,2325000000.00,    -53.00
466,2330000000.00,    -60.73
467,2335000000.00,    -49.70
468,2340000000.00,    -56.93
469,2345000000.00,    -52.40
470,2350000000.00,    -58.05
471,2355000000.00,    -52.18
472,2360000000.00,    -58.06
473,2365000000.00,    -51.18
474,2370000000.00,    -61.70
475,2375000000.00,    -52.79
476,2380000000.00,    -56.03
477,2385000000.00,    -50.36
478,2390000000.00,    -56.57
479,2395000000.00,    -53.17
480,2400000000.00,    -58.91
481,2405000000.00,    -52.29
482,2410000000.00,    -59.05
483,2415000000.00,    -53.06
484,2420000000.00,    -55.60
485,2425000000.00,    -53.21
486,2430000000.00,    -56.24
487,2435000000.00,    -51.41
488,2440000000.00,    -60.66
489,2445000000.00,    -52.35
490,2450000000.00,    -62.19
491,2455000000.00,    -53.72
492,2460000000.00,    -58.77
493,2465000000.00,    -52.06
494,2470000000.00,    -59.22
495,2475000000.00,    -51.44
496,2480000000.00,    -56.57
497,2485000000.00,    -52.42
498,2490000000.00,    -59.06
499,2495000000.00,    -51.58
500,2500000000.00,    -61.95
501,2505000000.00,    -50.73
502,2510000000.00,    -59.01
503,2515000000.00,    -52.04
504,2520000000.00,    -61.01
505,2525000000.00,    -53.27
506,2530000000.00,    -61.21
507,2535000000.00,    -53.39
508,2540000000.00,    -56.99
509,2545000000.00,    -48.87
510,2550000000.00,    -59.07
511,2555000000.00,    -50.59
512,2560000000.00,    -57.86
513,2565000000.00,    -52.19
514,2570000000.00,    -59.50
515,2575000000.00,    -52.29
516,2580000000.00,    -59.33
517,2585000000.00,    -52.78
518,2590000000.00,    -57.28
519,2595000000.00,    -51.96
520,2600000000.00,    -59.04
521,2605000000.00,    -53.64
522,2610000000.00,    -58.82
523,2615000000.00,    -49.69
524,2620000000.00,    -58.04
525,2625000000.00,    -52.03
526,2630000000.00,    -59.32
527,2635000000.00,    -51.64
528,2640000000.00,    -61.01
529,2645000000.00,    -51.43
530,2650000000.00,    -60.78
531,2655000000.00,    -52.70
532,2660000000.00,    -55.86
533,2665000000.00,    -49.66
534,2670000000.00,    -58.89
535,2675000000.00,    -50.31
536,2680000000.00,    -54.97
537,2685000000.00,    -52.17
538,2690000000.00,    -54.94
539,2695000000.00,    -50.23
540,2700000000.00,    -62.44
541,2705000000.00,    -51.04
542,2710000000.00,    -60.34
543,2715000000.00,    -52.41
544,2720000000.00,    -57.22
545,2725000000.00,    -51.85
546,2730000000.00,    -58.44
547,2735000000.00,    -53.23
548,2740000000.00,    -58.98
549,2745000000.00,    -52.97
550,2750000000.00,    -59.44
551,2755000000.00,    -52.26
552,2760000000.00,    -59.32
553,2765000000.00,    -54.06
554,2770000000.00,    -56.72
555,2775000000.00,    -51.26
556,2780000000.00,    -60.14
557,2785000000.00,    -51.39
558,2790000000.00,    -58.79
559,2795000000.00,    -50.95
560,2800000000.00,    -57.13
561,2805000000.00,    -49.90
562,2810000000.00,    -55.87
563,2815000000.00,    -52.13
564,2820000000.00,    -55.96
565,2825000000.00,    -51.51
566,2830000000.00,    -60.89
567,2835000000.00,    -52.28
568,2840000000.00,    -58.09
569,2845000000.00,    -51.34
570,2850000000.00,    -58.08
571,2855000000.00,    -51.45
572,2860000000.00,    -57.08
573,2865000000.00,    -51.22
574,2870000000.00,    -57.55
575,2875000000.00,    -51.72
576,2880000000.00,    -59.56
577,2885000000.00,    -52.49
578,2890000000.00,    -60.27
579,2895000000.00,    -49.52
580,2900000000.00,    -57.17
581,2905000000.00,    -51.04
582,2910000000.00,    -59.81
583,2915000000.00,    -54.19
584,2920000000.00,    -56.35
585,2925000000.00,    -53.58
586,2930000000.00,    -58.06
587,2935000000.00,    -51.97
588,2940000000.00,    -58.46
589,2945000000.00,    -51.50
590,2950000000.00,    -57.64
591,2955000000.00,    -51.70
592,2960000000.00,    -64.01
593,2965000000.00,    -52.71
594,2970000000.00,    -59.63
595,2975000000.00,    -49.90
596,2980000000.00,    -60.91
597,2985000000.00,    -52.81
598,2990000000.00,    -58.90
599,2995000000.00,    -52.19
600,3000000000.00,    -60.64
