Point:,Frequency(Hz),Amplitude(dBm)
0,      0.00,    -59.98
1,5000000.00,    -37.39
2,10000000.00,    -58.43
3,15000000.00,    -53.01
4,20000000.00,    -60.14
5,25000000.00,    -52.56
6,30000000.00,    -60.40
7,35000000.00,    -54.66
8,40000000.00,    -61.38
9,45000000.00,    -52.97
10,50000000.00,    -59.43
11,55000000.00,    -52.59
12,60000000.00,    -61.16
13,65000000.00,    -52.53
14,70000000.00,    -60.80
15,75000000.00,    -53.80
16,80000000.00,    -62.06
17,85000000.00,    -53.09
18,90000000.00,    -57.77
19,95000000.00,    -55.41
20,100000000.00,    -61.26
21,105000000.00,    -53.85
22,110000000.00,    -58.46
23,115000000.00,    -52.00
24,120000000.00,    -59.24
25,125000000.00,    -55.02
26,130000000.00,    -60.00
27,135000000.00,    -51.92
28,140000000.00,    -59.56
29,145000000.00,    -54.12
30,150000000.00,    -61.29
31,155000000.00,    -53.71
32,160000000.00,    -60.00
33,165000000.00,    -53.20
34,170000000.00,    -63.48
35,175000000.00,    -54.36
36,180000000.00,    -61.42
37,185000000.00,    -52.12
38,190000000.00,    -63.01
39,195000000.00,    -53.58
40,200000000.00,    -61.84
41,205000000.00,    -53.44
42,210000000.00,    -57.36
43,215000000.00,    -54.01
44,220000000.00,    -59.91
45,225000000.00,    -53.12
46,230000000.00,    -62.01
47,235000000.00,    -54.39
48,240000000.00,    -64.59
49,245000000.00,    -54.04
50,250000000.00,    -59.47
51,255000000.00,    -52.84
52,260000000.00,    -62.32
53,265000000.00,    -53.05
54,270000000.00,    -62.55
55,275000000.00,    -55.24
56,280000000.00,    -59.64
57,285000000.00,    -53.14
58,290000000.00,    -60.03
59,295000000.00,    -53.60
60,300000000.00,    -63.62
61,305000000.00,    -52.59
62,310000000.00,    -60.99
63,315000000.00,    -53.45
64,320000000.00,    -62.32
65,325000000.00,    -53.55
66,330000000.00,    -59.29
67,335000000.00,    -52.99
68,340000000.00,    -60.09
69,345000000.00,    -52.83
70,350000000.00,    -63.92
71,355000000.00,    -54.26
72,360000000.00,    -60.91
73,365000000.00,    -51.62
74,370000000.00,    -61.12
75,375000000.00,    -53.39
76,380000000.00,    -57.45
77,385000000.00,    -54.28
78,390000000.00,    -60.69
79,395000000.00,    -53.05
80,400000000.00,    -62.47
81,405000000.00,    -54.99
82,410000000.00,    -57.57
83,415000000.00,    -49.99
84,420000000.00,    -63.56
85,425000000.00,    -53.29
86,430000000.00,    -61.12
87,435000000.00,    -53.83
88,440000000.00,    -64.05
89,445000000.00,    -53.93
90,450000000.00,    -64.12
91,455000000.00,    -55.65
92,460000000.00,    -54.57
93,465000000.00,    -52.36
94,470000000.00,    -62.31
95,475000000.00,    -53.23
96,480000000.00,    -58.84
97,485000000.00,    -52.46
98,490000000.00,    -19.27
99,495000000.00,    -18.94
100,500000000.00,    -61.74
101,505000000.00,    -52.33
102,510000000.00,    -60.25
103,515000000.00,    -52.50
104,520000000.00,    -62.27
105,525000000.00,    -52.34
106,530000000.00,    -59.91
107,535000000.00,    -53.77
108,540000000.00,    -60.59
109,545000000.00,    -53.03
110,550000000.00,    -58.01
111,555000000.00,    -53.35
112,560000000.00,    -59.49
113,565000000.00,    -53.39
114,570000000.00,    -60.28
115,575000000.00,    -53.38
116,580000000.00,    -61.21
117,585000000.00,    -53.79
118,590000000.00,    -58.81
119,595000000.00,    -52.73
120,600000000.00,    -61.44
121,605000000.00,    -53.62
122,610000000.00,    -60.63
123,615000000.00,    -54.78
124,620000000.00,    -61.97
125,625000000.00,    -53.68
126,630000000.00,    -58.57
127,635000000.00,    -52.87
128,640000000.00,    -60.78
129,645000000.00,    -53.39
130,650000000.00,    -61.16
131,655000000.00,    -54.38
132,660000000.00,    -58.41
133,665000000.00,    -50.17
134,670000000.00,    -65.76
135,675000000.00,    -52.60
136,680000000.00,    -63.79
137,685000000.00,    -54.20
138,690000000.00,    -61.21
139,695000000.00,    -54.14
140,700000000.00,    -59.43
141,705000000.00,    -52.40
142,710000000.00,    -59.01
143,715000000.00,    -53.75
144,720000000.00,    -59.11
145,725000000.00,    -56.08
146,730000000.00,    -58.71
147,735000000.00,    -54.09
148,740000000.00,    -62.42
149,745000000.00,    -53.01
150,750000000.00,    -62.12
151,755000000.00,    -53.72
152,760000000.00,    -62.98
153,765000000.00,    -54.01
154,770000000.00,    -62.60
155,775000000.00,    -55.60
156,780000000.00,    -61.35
157,785000000.00,    -51.65
158,790000000.00,    -61.41
159,795000000.00,    -53.87
160,800000000.00,    -61.58
161,805000000.00,    -52.81
162,810000000.00,    -60.52
163,815000000.00,    -53.02
164,820000000.00,    -59.20
165,825000000.00,    -52.43
166,830000000.00,    -59.87
167,835000000.00,    -54.09
168,840000000.00,    -61.87
169,845000000.00,    -52.52
170,850000000.00,    -58.21
171,855000000.00,    -54.42
172,860000000.00,    -61.14
173,865000000.00,    -53.05
174,870000000.00,    -59.08
175,875000000.00,    -51.65
176,880000000.00,    -63.11
177,885000000.00,    -53.03
178,890000000.00,    -57.61
179,895000000.00,    -52.61
180,900000000.00,    -62.06
181,905000000.00,    -53.25
182,910000000.00,    -61.96
183,915000000.00,    -52.42
184,920000000.00,    -58.59
185,925000000.00,    -53.66
186,930000000.00,    -61.57
187,935000000.00,    -52.46
188,940000000.00,    -60.57
189,945000000.00,    -52.37
190,950000000.00,    -61.22
191,955000000.00,    -53.18
192,960000000.00,    -60.32
193,965000000.00,    -53.36
194,970000000.00,    -62.85
195,975000000.00,    -54.49
196,980000000.00,    -58.41
197,985000000.00,    -53.27
198,990000000.00,    -61.81
199,995000000.00,    -52.84
200,1000000000.00,    -62.04
201,1005000000.00,    -54.88
202,1010000000.00,    -61.33
203,1015000000.00,    -53.92
204,1020000000.00,    -57.65
205,1025000000.00,    -52.23
206,1030000000.00,    -59.45
207,1035000000.00,    -52.27
208,1040000000.00,    -63.15
209,1045000000.00,    -53.85
210,1050000000.00,    -63.27
211,1055000000.00,    -53.33
212,1060000000.00,    -61.05
213,1065000000.00,    -51.16
214,1070000000.00,    -59.83
215,1075000000.00,    -53.05
216,1080000000.00,    -57.96
217,1085000000.00,    -53.16
218,1090000000.00,    -61.20
219,1095000000.00,    -52.77
220,1100000000.00,    -63.12
221,1105000000.00,    -51.80
222,1110000000.00,    -56.27
223,1115000000.00,    -53.87
224,1120000000.00,    -60.05
225,1125000000.00,    -52.98
226,1130000000.00,    -62.65
227,1135000000.00,    -51.59
228,1140000000.00,    -58.94
229,1145000000.00,    -52.80
230,1150000000.00,    -58.61
231,1155000000.00,    -54.84
232,1160000000.00,    -63.30
233,1165000000.00,    -53.62
234,1170000000.00,    -61.33
235,1175000000.00,    -53.18
236,1180000000.00,    -62.77
237,1185000000.00,    -54.81
238,1190000000.00,    -63.67
239,1195000000.00,    -54.03
240,1200000000.00,    -60.48
241,1205000000.00,    -54.85
242,1210000000.00,    -64.81
243,1215000000.00,    -54.37
244,1220000000.00,    -60.63
245,1225000000.00,    -53.44
246,1230000000.00,    -60.93
247,1235000000.00,    -52.88
248,1240000000.00,    -61.87
249,1245000000.00,    -52.82
250,1250000000.00,    -59.28
251,1255000000.00,    -53.21
252,1260000000.00,    -60.14
253,1265000000.00,    -54.69
254,1270000000.00,    -62.36
255,1275000000.00,    -53.76
256,1280000000.00,    -63.15
257,1285000000.00,    -53.92
258,1290000000.00,    -60.83
259,1295000000.00,    -53.33
260,1300000000.00,    -61.05
261,1305000000.00,    -51.79
262,1310000000.00,    -59.78
263,1315000000.00,    -52.93
264,1320000000.00,    -62.28
265,1325000000.00,    -53.11
266,1330000000.00,    -63.09
267,1335000000.00,    -53.15
268,1340000000.00,    -60.54
269,1345000000.00,    -52.65
270,1350000000.00,    -61.15
271,1355000000.00,    -51.16
272,1360000000.00,    -58.46
273,1365000000.00,    -53.98
274,1370000000.00,    -62.61
275,1375000000.00,    -53.83
276,1380000000.00,    -61.49
277,1385000000.00,    -55.05
278,1390000000.00,    -60.47
279,1395000000.00,    -53.54
280,1400000000.00,    -59.71
281,1405000000.00,    -53.10
282,1410000000.00,    -63.00
283,1415000000.00,    -53.18
284,1420000000.00,    -59.93
285,1425000000.00,    -51.54
286,1430000000.00,    -59.61
287,1435000000.00,    -52.97
288,1440000000.00,    -60.23
289,1445000000.00,    -52.07
290,1450000000.00,    -61.26
291,1455000000.00,    -52.77
292,1460000000.00,    -60.09
293,1465000000.00,    -54.74
294,1470000000.00,    -59.96
295,1475000000.00,    -54.12
296,1480000000.00,    -60.19
297,1485000000.00,    -51.95
298,1490000000.00,    -58.05
299,1495000000.00,    -52.19
300,1500000000.00,    -59.28
301,1505000000.00,    -52.33
302,1510000000.00,    -63.44
303,1515000000.00,    -50.14
304,1520000000.00,    -57.25
305,1525000000.00,    -49.70
306,1530000000.00,    -60.36
307,1535000000.00,    -51.54
308,1540000000.00,    -62.25
309,1545000000.00,    -52.02
310,1550000000.00,    -60.58
311,1555000000.00,    -51.55
312,1560000000.00,    -64.29
313,1565000000.00,    -51.81
314,1570000000.00,    -60.44
315,1575000000.00,    -52.98
316,1580000000.00,    -59.78
317,1585000000.00,    -52.85
318,1590000000.00,    -59.03
319,1595000000.00,    -53.37
320,1600000000.00,    -59.21
321,1605000000.00,    -52.75
322,1610000000.00,    -59.08
323,1615000000.00,    -53.07
324,1620000000.00,    -59.43
325,1625000000.00,    -52.16
326,1630000000.00,    -58.56
327,1635000000.00,    -52.01
328,1640000000.00,    -63.38
329,1645000000.00,    -51.69
330,1650000000.00,    -61.85
331,1655000000.00,    -51.24
332,1660000000.00,    -59.78
333,1665000000.00,    -53.69
334,1670000000.00,    -62.26
335,1675000000.00,    -54.26
336,1680000000.00,    -57.48
337,1685000000.00,    -53.34
338,1690000000.00,    -62.16
339,1695000000.00,    -51.75
340,1700000000.00,    -58.95
341,1705000000.00,    -53.04
342,1710000000.00,    -63.31
343,1715000000.00,    -53.63
344,1720000000.00,    -57.53
345,1725000000.00,    -52.94
346,1730000000.00,    -61.05
347,1735000000.00,    -51.81
348,1740000000.00,    -59.35
349,1745000000.00,    -53.47
350,1750000000.00,    -57.75
351,1755000000.00,    -53.67
352,1760000000.00,    -60.99
353,1765000000.00,    -53.73
354,1770000000.00,    -58.20
355,1775000000.00,    -53.07
356,1780000000.00,    -62.50
357,1785000000.00,    -53.68
358,1790000000.00,    -57.73
359,1795000000.00,    -51.39
360,1800000000.00,    -62.97
361,1805000000.00,    -52.70
362,1810000000.00,    -60.19
363,1815000000.00,    -52.93
364,1820000000.00,    -60.86
365,1825000000.00,    -54.46
366,1830000000.00,    -62.31
367,1835000000.00,    -51.32
368,1840000000.00,    -60.21
369,1845000000.00,    -53.61
370,1850000000.00,    -61.92
371,1855000000.00,    -52.21
372,1860000000.00,    -60.91
373,1865000000.00,    -52.39
374,1870000000.00,    -59.82
375,1875000000.00,    -52.23
376,1880000000.00,    -59.11
377,1885000000.00,    -52.64
378,1890000000.00,    -61.28
379,1895000000.00,    -54.22
380,1900000000.00,    -60.28
381,1905000000.00,    -53.83
382,1910000000.00,    -56.66
383,1915000000.00,    -52.94
384,1920000000.00,    -61.06
385,1925000000.00,    -51.82
386,1930000000.00,    -59.60
387,1935000000.00,    -52.07
388,1940000000.00,    -57.64
389,1945000000.00,    -53.47
390,1950000000.00,    -60.86
391,1955000000.00,    -52.16
392,1960000000.00,    -58.57
393,1965000000.00,    -50.23
394,1970000000.00,    -59.27
395,1975000000.00,    -52.34
396,1980000000.00,    -60.04
397,1985000000.00,    -52.73
398,1990000000.00,    -59.26
399,1995000000.00,    -52.82
400,2000000000.00,    -60.74
401,2005000000.00,    -53.37
402,2010000000.00,    -60.04
403,2015000000.00,    -53.14
404,2020000000.00,    -63.47
405,2025000000.00,    -52.96
406,2030000000.00,    -62.66
407,2035000000.00,    -52.57
408,2040000000.00,    -61.16
409,2045000000.00,    -51.04
410,2050000000.00,    -62.28
411,2055000000.00,    -53.57
412,2060000000.00,    -56.13
413,2065000000.00,    -51.43
414,2070000000.00,    -59.81
415,2075000000.00,    -51.03
416,2080000000.00,    -58.50
417,2085000000.00,    -52.27
418,2090000000.00,    -60.26
419,2095000000.00,    -52.33
420,2100000000.00,    -60.04
421,2105000000.00,    -50.47
422,2110000000.00,    -60.81
423,2115000000.00,    -55.15
424,2120000000.00,    -57.42
425,2125000000.00,    -51.87
426,2130000000.00,    -60.64
427,2135000000.00,    -54.32
428,2140000000.00,    -59.15
429,2145000000.00,    -51.91
430,2150000000.00,    -63.22
431,2155000000.00,    -52.08
432,2160000000.00,    -61.22
433,2165000000.00,    -52.14
434,2170000000.00,    -59.71
435,2175000000.00,    -52.94
436,2180000000.00,    -56.67
437,2185000000.00,    -49.36
438,2190000000.00,    -59.90
439,2195000000.00,    -52.48
440,2200000000.00,    -59.02
441,2205000000.00,    -51.20
442,2210000000.00,    -57.23
443,2215000000.00,    -53.53
444,2220000000.00,    -63.59
445,2225000000.00,    -50.57
446,2230000000.00,    -57.71
447,2235000000.00,    -52.61
448,2240000000.00,    -58.75
449,2245000000.00,    -52.87
450,2250000000.00,    -58.77
451,2255000000.00,    -53.64
452,2260000000.00,    -58.68
453,2265000000.00,    -51.19
454,2270000000.00,    -59.99
455,2275000000.00,    -52.20
456,2280000000.00,    -60.36
457,2285000000.00,    -52.82
458,2290000000.00,    -59.47
459,2295000000.00,    -49.70
460,2300000000.00,    -54.79
461,2305000000.00,    -51.21
462,2310000000.00,    -57.97
463,2315000000.00,    -50.28
464,2320000000.00,    -55.46
465,2325000000.00,    -49.78
466,2330000000.00,    -55.72
467,2335000000.00,    -50.03
468,2340000000.00,    -58.97
469,2345000000.00,    -50.96
470,2350000000.00,    -61.32
471,2355000000.00,    -51.98
472,2360000000.00,    -61.55
473,2365000000.00,    -52.98
474,2370000000.00,    -60.42
475,2375000000.00,    -50.95
476,2380000000.00,    -58.26
477,2385000000.00,    -52.51
478,2390000000.00,    -57.54
479,2395000000.00,    -51.28
480,2400000000.00,    -60.89
481,2405000000.00,    -51.17
482,2410000000.00,    -60.15
483,2415000000.00,    -51.04
484,2420000000.00,    -60.17
485,2425000000.00,    -50.23
486,2430000000.00,    -57.63
487,2435000000.00,    -52.17
488,2440000000.00,    -56.48
489,2445000000.00,    -51.78
490,2450000000.00,    -62.56
491,2455000000.00,    -51.73
492,2460000000.00,    -61.77
493,2465000000.00,    -52.23
494,2470000000.00,    -58.09
495,2475000000.00,    -52.11
496,2480000000.00,    -58.45
497,2485000000.00,    -52.70
498,2490000000.00,    -59.56
499,2495000000.00,    -50.06
500,2500000000.00,    -59.08
501,2505000000.00,    -52.74
502,2510000000.00,    -62.74
503,2515000000.00,    -52.20
504,2520000000.00,    -63.29
505,2525000000.00,    -53.01
506,2530000000.00,    -60.45
507,2535000000.00,    -51.11
508,2540000000.00,    -63.99
509,2545000000.00,    -51.92
510,2550000000.00,    -59.28
511,2555000000.00,    -50.67
512,2560000000.00,    -59.11
513,2565000000.00,    -50.17
514,2570000000.00,    -59.59
515,2575000000.00,    -51.52
516,2580000000.00,    -58.12
517,2585000000.00,    -53.87
518,2590000000.00,    -60.76
519,2595000000.00,    -50.43
520,2600000000.00,    -55.54
521,2605000000.00,    -51.64
522,2610000000.00,    -62.34
523,2615000000.00,    -53.37
524,2620000000.00,    -59.02
525,2625000000.00,    -53.77
526,2630000000.00,    -59.34
527,2635000000.00,    -50.60
528,2640000000.00,    -58.93
529,2645000000.00,    -53.56
530,2650000000.00,    -56.21
531,2655000000.00,    -50.67
532,2660000000.00,    -57.14
533,2665000000.00,    -51.73
534,2670000000.00,    -59.61
535,2675000000.00,    -52.53
536,2680000000.00,    -61.43
537,2685000000.00,    -52.87
538,2690000000.00,    -63.07
539,2695000000.00,    -51.82
540,2700000000.00,    -61.41
541,2705000000.00,    -52.90
542,2710000000.00,    -57.82
543,2715000000.00,    -52.76
544,2720000000.00,    -55.24
545,2725000000.00,    -50.65
546,2730000000.00,    -60.69
547,2735000000.00,    -52.69
548,2740000000.00,    -58.42
549,2745000000.00,    -53.17
550,2750000000.00,    -60.25
551,2755000000.00,    -51.84
552,2760000000.00,    -59.87
553,2765000000.00,    -53.48
554,2770000000.00,    -59.26
555,2775000000.00,    -49.17
556,2780000000.00,    -60.72
557,2785000000.00,    -50.93
558,2790000000.00,    -59.85
559,2795000000.00,    -52.59
560,2800000000.00,    -63.06
561,2805000000.00,    -51.73
562,2810000000.00,    -59.99
563,2815000000.00,    -53.48
564,2820000000.00,    -60.87
565,2825000000.00,    -53.99
566,2830000000.00,    -60.98
567,2835000000.00,    -51.93
568,2840000000.00,    -60.60
569,2845000000.00,    -52.35
570,2850000000.00,    -58.28
571,2855000000.00,    -52.45
572,2860000000.00,    -60.93
573,2865000000.00,    -51.46
574,2870000000.00,    -57.09
575,2875000000.00,    -52.60
576,2880000000.00,    -59.27
577,2885000000.00,    -51.81
578,2890000000.00,    -58.77
579,2895000000.00,    -53.18
580,2900000000.00,    -61.38
581,2905000000.00,    -52.15
582,2910000000.00,    -60.12
583,2915000000.00,    -53.17
584,2920000000.00,    -61.34
585,2925000000.00,    -52.42
586,2930000000.00,    -60.87
587,2935000000.00,    -52.85
588,2940000000.00,    -59.56
589,2945000000.00,    -52.08
590,2950000000.00,    -59.80
591,2955000000.00,    -53.06
592,2960000000.00,    -61.07
593,2965000000.00,    -49.63
594,2970000000.00,    -55.29
595,2975000000.00,    -50.02
596,2980000000.00,    -61.41
597,2985000000.00,    -52.26
598,2990000000.00,    -60.97
599,2995000000.00,    -50.60
600,3000000000.00,    -57.52
