Point:,Frequency(Hz),Amplitude(dBm)
0,      0.00,    -61.97
1,5000000.00,    -53.59
2,10000000.00,    -61.20
3,15000000.00,    -50.53
4,20000000.00,    -60.66
5,25000000.00,    -52.11
6,30000000.00,    -60.28
7,35000000.00,    -53.30
8,40000000.00,    -60.95
9,45000000.00,    -54.93
10,50000000.00,    -59.57
11,55000000.00,    -53.15
12,60000000.00,    -60.86
13,65000000.00,    -53.84
14,70000000.00,    -63.29
15,75000000.00,    -54.61
16,80000000.00,    -60.48
17,85000000.00,    -53.01
18,90000000.00,    -59.76
19,95000000.00,    -53.87
20,100000000.00,    -61.70
21,105000000.00,    -53.72
22,110000000.00,    -58.88
23,115000000.00,    -53.44
24,120000000.00,    -60.64
25,125000000.00,    -52.90
26,130000000.00,    -59.33
27,135000000.00,    -54.65
28,140000000.00,    -61.27
29,145000000.00,    -54.02
30,150000000.00,    -61.74
31,155000000.00,    -54.34
32,160000000.00,    -62.47
33,165000000.00,    -53.80
34,170000000.00,    -60.15
35,175000000.00,    -53.65
36,180000000.00,    -62.75
37,185000000.00,    -52.16
38,190000000.00,    -61.69
39,195000000.00,    -53.33
40,200000000.00,    -61.58
41,205000000.00,    -53.52
42,210000000.00,    -59.64
43,215000000.00,    -51.64
44,220000000.00,    -63.02
45,225000000.00,    -53.89
46,230000000.00,    -59.46
47,235000000.00,    -52.25
48,240000000.00,    -59.41
49,245000000.00,    -53.00
50,250000000.00,    -57.27
51,255000000.00,    -53.49
52,260000000.00,    -59.39
53,265000000.00,    -54.70
54,270000000.00,    -64.26
55,275000000.00,    -53.63
56,280000000.00,    -60.61
57,285000000.00,    -51.10
58,290000000.00,    -61.03
59,295000000.00,    -52.77
60,300000000.00,    -59.64
61,305000000.00,    -53.37
62,310000000.00,    -57.76
63,315000000.00,    -53.18
64,320000000.00,    -59.15
65,325000000.00,    -53.08
66,330000000.00,    -59.81
67,335000000.00,    -53.21
68,340000000.00,    -63.50
69,345000000.00,    -54.87
70,350000000.00,    -60.19
71,355000000.00,    -53.94
72,360000000.00,    -62.81
73,365000000.00,    -52.95
74,370000000.00,    -60.51
75,375000000.00,    -54.62
76,380000000.00,    -59.71
77,385000000.00,    -54.54
78,390000000.00,    -61.41
79,395000000.00,    -51.83
80,400000000.00,    -63.32
81,405000000.00,    -51.34
82,410000000.00,    -61.06
83,415000000.00,    -51.77
84,420000000.00,    -58.12
85,425000000.00,    -52.71
86,430000000.00,    -61.74
87,435000000.00,    -53.92
88,440000000.00,    -61.64
89,445000000.00,    -54.13
90,450000000.00,    -58.47
91,455000000.00,    -51.05
92,460000000.00,    -64.58
93,465000000.00,    -54.01
94,470000000.00,    -63.91
95,475000000.00,    -53.01
96,480000000.00,    -58.27
97,485000000.00,    -53.32
98,490000000.00,    -61.26
99,495000000.00,    -54.62
100,500000000.00,    -61.25
101,505000000.00,    -54.80
102,510000000.00,    -58.93
103,515000000.00,    -54.91
104,520000000.00,    -59.69
105,525000000.00,    -53.49
106,530000000.00,    -62.29
107,535000000.00,    -55.30
108,540000000.00,    -63.41
109,545000000.00,    -53.07
110,550000000.00,    -61.41
111,555000000.00,    -52.33
112,560000000.00,    -60.73
113,565000000.00,    -53.19
114,570000000.00,    -62.56
115,575000000.00,    -53.10
116,580000000.00,    -60.30
117,585000000.00,    -54.29
118,590000000.00,    -60.99
119,595000000.00,    -54.47
120,600000000.00,    -60.56
121,605000000.00,    -55.01
122,610000000.00,    -58.47
123,615000000.00,    -52.81
124,620000000.00,    -62.40
125,625000000.00,    -51.14
126,630000000.00,    -59.74
127,635000000.00,    -52.18
128,640000000.00,    -59.11
129,645000000.00,    -52.20
130,650000000.00,    -62.00
131,655000000.00,    -52.35
132,660000000.00,    -59.41
133,665000000.00,    -52.54
134,670000000.00,    -59.00
135,675000000.00,    -53.09
136,680000000.00,    -60.14
137,685000000.00,    -55.81
138,690000000.00,    -60.04
139,695000000.00,    -52.97
140,700000000.00,    -59.07
141,705000000.00,    -51.23
142,710000000.00,    -59.20
143,715000000.00,    -51.62
144,720000000.00,    -64.57
145,725000000.00,    -52.73
146,730000000.00,    -61.89
147,735000000.00,    -54.21
148,740000000.00,    -59.18
149,745000000.00,    -53.78
150,750000000.00,    -60.35
151,755000000.00,    -53.79
152,760000000.00,    -62.97
153,765000000.00,    -53.66
154,770000000.00,    -58.19
155,775000000.00,    -51.48
156,780000000.00,    -61.95
157,785000000.00,    -53.99
158,790000000.00,    -62.15
159,795000000.00,    -53.13
160,800000000.00,    -60.36
161,805000000.00,    -51.77
162,810000000.00,    -61.64
163,815000000.00,    -51.44
164,820000000.00,    -59.82
165,825000000.00,    -53.26
166,830000000.00,    -61.43
167,835000000.00,    -52.68
168,840000000.00,    -59.83
169,845000000.00,    -52.15
170,850000000.00,    -58.40
171,855000000.00,    -53.46
172,860000000.00,    -58.47
173,865000000.00,    -54.32
174,870000000.00,    -62.53
175,875000000.00,    -53.36
176,880000000.00,    -59.70
177,885000000.00,    -52.63
178,890000000.00,    -61.95
179,895000000.00,    -52.59
180,900000000.00,    -61.10
181,905000000.00,    -53.04
182,910000000.00,    -58.85
183,915000000.00,    -51.70
184,920000000.00,    -60.80
185,925000000.00,    -52.63
186,930000000.00,    -62.10
187,935000000.00,    -53.02
188,940000000.00,    -60.58
189,945000000.00,    -52.97
190,950000000.00,    -60.43
191,955000000.00,    -52.72
192,960000000.00,    -59.80
193,965000000.00,    -50.61
194,970000000.00,    -57.59
195,975000000.00,    -50.80
196,980000000.00,    -60.63
197,985000000.00,    -52.26
198,990000000.00,    -59.94
199,995000000.00,    -33.45
200,1000000000.00,    -60.70
201,1005000000.00,    -51.20
202,1010000000.00,    -59.08
203,1015000000.00,    -53.92
204,1020000000.00,    -62.35
205,1025000000.00,    -51.53
206,1030000000.00,    -59.73
207,1035000000.00,    -51.65
208,1040000000.00,    -58.58
209,1045000000.00,    -51.37
210,1050000000.00,    -60.66
211,1055000000.00,    -51.54
212,1060000000.00,    -60.49
213,1065000000.00,    -52.27
214,1070000000.00,    -59.52
215,1075000000.00,    -53.98
216,1080000000.00,    -58.50
217,1085000000.00,    -53.44
218,1090000000.00,    -58.57
219,1095000000.00,    -53.21
220,1100000000.00,    -57.25
221,1105000000.00,    -53.32
222,1110000000.00,    -57.14
223,1115000000.00,    -54.06
224,1120000000.00,    -56.05
225,1125000000.00,    -51.64
226,1130000000.00,    -60.96
227,1135000000.00,    -54.38
228,1140000000.00,    -56.79
229,1145000000.00,    -52.17
230,1150000000.00,    -62.36
231,1155000000.00,    -53.51
232,1160000000.00,    -63.84
233,1165000000.00,    -54.34
234,1170000000.00,    -63.06
235,1175000000.00,    -53.61
236,1180000000.00,    -59.36
237,1185000000.00,    -54.35
238,1190000000.00,    -61.89
239,1195000000.00,    -54.11
240,1200000000.00,    -63.23
241,1205000000.00,    -54.07
242,1210000000.00,    -60.32
243,1215000000.00,    -51.69
244,1220000000.00,    -62.04
245,1225000000.00,    -53.98
246,1230000000.00,    -60.58
247,1235000000.00,    -55.24
248,1240000000.00,    -59.92
249,1245000000.00,    -53.93
250,1250000000.00,    -60.29
251,1255000000.00,    -55.22
252,1260000000.00,    -58.01
253,1265000000.00,    -53.92
254,1270000000.00,    -59.28
255,1275000000.00,    -53.52
256,1280000000.00,    -58.11
257,1285000000.00,    -52.74
258,1290000000.00,    -60.23
259,1295000000.00,    -52.13
260,1300000000.00,    -61.01
261,1305000000.00,    -52.35
262,1310000000.00,    -60.38
263,1315000000.00,    -54.05
264,1320000000.00,    -60.64
265,1325000000.00,    -54.61
266,1330000000.00,    -57.39
267,1335000000.00,    -53.90
268,1340000000.00,    -60.08
269,1345000000.00,    -53.88
270,1350000000.00,    -56.55
271,1355000000.00,    -52.58
272,1360000000.00,    -59.18
273,1365000000.00,    -54.50
274,1370000000.00,    -63.00
275,1375000000.00,    -51.93
276,1380000000.00,    -64.72
277,1385000000.00,    -50.46
278,1390000000.00,    -59.38
279,1395000000.00,    -53.15
280,1400000000.00,    -61.59
281,1405000000.00,    -51.34
282,1410000000.00,    -62.62
283,1415000000.00,    -54.26
284,1420000000.00,    -57.53
285,1425000000.00,    -52.63
286,1430000000.00,    -57.74
287,1435000000.00,    -52.69
288,1440000000.00,    -60.07
289,1445000000.00,    -54.87
290,1450000000.00,    -60.41
291,1455000000.00,    -53.44
292,1460000000.00,    -61.72
293,1465000000.00,    -52.78
294,1470000000.00,    -62.07
295,1475000000.00,    -53.19
296,1480000000.00,    -58.87
297,1485000000.00,    -53.41
298,1490000000.00,    -60.36
299,1495000000.00,    -51.92
300,1500000000.00,    -60.63
301,1505000000.00,    -52.44
302,1510000000.00,    -62.63
303,1515000000.00,    -51.99
304,1520000000.00,    -56.92
305,1525000000.00,    -51.65
306,1530000000.00,    -60.96
307,1535000000.00,    -51.91
308,1540000000.00,    -61.69
309,1545000000.00,    -53.47
310,1550000000.00,    -60.41
311,1555000000.00,    -51.82
312,1560000000.00,    -60.46
313,1565000000.00,    -53.82
314,1570000000.00,    -59.42
315,1575000000.00,    -52.76
316,1580000000.00,    -60.24
317,1585000000.00,    -53.77
318,1590000000.00,    -61.28
319,1595000000.00,    -52.06
320,1600000000.00,    -61.39
321,1605000000.00,    -52.32
322,1610000000.00,    -61.83
323,1615000000.00,    -51.68
324,1620000000.00,    -58.87
325,1625000000.00,    -53.34
326,1630000000.00,    -60.48
327,1635000000.00,    -52.07
328,1640000000.00,    -57.37
329,1645000000.00,    -53.09
330,1650000000.00,    -61.75
331,1655000000.00,    -52.81
332,1660000000.00,    -62.43
333,1665000000.00,    -54.09
334,1670000000.00,    -59.99
335,1675000000.00,    -52.86
336,1680000000.00,    -57.19
337,1685000000.00,    -53.26
338,1690000000.00,    -57.81
339,1695000000.00,    -49.61
340,1700000000.00,    -61.26
341,1705000000.00,    -51.66
342,1710000000.00,    -60.47
343,1715000000.00,    -52.17
344,1720000000.00,    -58.43
345,1725000000.00,    -53.74
346,1730000000.00,    -62.53
347,1735000000.00,    -52.11
348,1740000000.00,    -62.40
349,1745000000.00,    -50.84
350,1750000000.00,    -57.31
351,1755000000.00,    -51.70
352,1760000000.00,    -57.98
353,1765000000.00,    -51.87
354,1770000000.00,    -58.74
355,1775000000.00,    -52.71
356,1780000000.00,    -60.76
357,1785000000.00,    -53.92
358,1790000000.00,    -60.43
359,1795000000.00,    -51.95
360,1800000000.00,    -62.80
361,1805000000.00,    -51.05
362,1810000000.00,    -59.47
363,1815000000.00,    -53.23
364,1820000000.00,    -61.18
365,1825000000.00,    -52.85
366,1830000000.00,    -57.91
367,1835000000.00,    -52.72
368,1840000000.00,    -61.67
369,1845000000.00,    -51.17
370,1850000000.00,    -61.13
371,1855000000.00,    -53.12
372,1860000000.00,    -60.84
373,1865000000.00,    -52.17
374,1870000000.00,    -57.90
375,1875000000.00,    -51.25
376,1880000000.00,    -62.81
377,1885000000.00,    -54.55
378,1890000000.00,    -57.41
379,1895000000.00,    -52.81
380,1900000000.00,    -60.50
381,1905000000.00,    -51.73
382,1910000000.00,    -58.19
383,1915000000.00,    -54.33
384,1920000000.00,    -59.53
385,1925000000.00,    -52.60
386,1930000000.00,    -58.61
387,1935000000.00,    -52.87
388,1940000000.00,    -61.38
389,1945000000.00,    -53.46
390,1950000000.00,    -59.33
391,1955000000.00,    -51.30
392,1960000000.00,    -59.47
393,1965000000.00,    -51.26
394,1970000000.00,    -58.87
395,1975000000.00,    -51.69
396,1980000000.00,    -60.58
397,1985000000.00,    -52.47
398,1990000000.00,    -60.42
399,1995000000.00,    -52.10
400,2000000000.00,    -62.03
401,2005000000.00,    -54.56
402,2010000000.00,    -59.61
403,2015000000.00,    -53.38
404,2020000000.00,    -59.36
405,2025000000.00,    -53.12
406,2030000000.00,    -60.38
407,2035000000.00,    -53.18
408,2040000000.00,    -59.58
409,2045000000.00,    -51.22
410,2050000000.00,    -61.96
411,2055000000.00,    -52.94
412,2060000000.00,    -59.07
413,2065000000.00,    -52.88
414,2070000000.00,    -58.83
415,2075000000.00,    -53.26
416,2080000000.00,    -63.66
417,2085000000.00,    -49.57
418,2090000000.00,    -56.05
419,2095000000.00,    -53.84
420,2100000000.00,    -60.47
421,2105000000.00,    -50.77
422,2110000000.00,    -61.90
423,2115000000.00,    -49.79
424,2120000000.00,    -59.44
425,2125000000.00,    -52.21
426,2130000000.00,    -59.35
427,2135000000.00,    -51.42
428,2140000000.00,    -62.32
429,2145000000.00,    -52.87
430,2150000000.00,    -60.96
431,2155000000.00,    -51.91
432,2160000000.00,    -57.03
433,2165000000.00,    -52.03
434,2170000000.00,    -62.06
435,2175000000.00,    -52.42
436,2180000000.00,    -59.26
437,2185000000.00,    -52.75
438,2190000000.00,    -58.04
439,2195000000.00,    -52.46
440,2200000000.00,    -57.71
441,2205000000.00,    -52.47
442,2210000000.00,    -60.73
443,2215000000.00,    -52.23
444,2220000000.00,    -59.25
445,2225000000.00,    -51.99
446,2230000000.00,    -62.00
447,2235000000.00,    -51.71
448,2240000000.00,    -60.17
449,2245000000.00,    -53.28
450,2250000000.00,    -58.16
451,2255000000.00,    -50.96
452,2260000000.00,    -59.28
453,2265000000.00,    -51.36
454,2270000000.00,    -55.99
455,2275000000.00,    -52.11
456,2280000000.00,    -58.00
457,2285000000.00,    -50.80
458,2290000000.00,    -59.08
459,2295000000.00,    -51.07
460,2300000000.00,    -60.47
461,2305000000.00,    -50.95
462,2310000000.00,    -59.41
463,2315000000.00,    -52.25
464,2320000000.00,    -59.95
465,2325000000.00,    -50.98
466,2330000000.00,    -57.85
467,2335000000.00,    -51.63
468,2340000000.00,    -62.16
469,2345000000.00,    -51.14
470,2350000000.00,    -59.46
471,2355000000.00,    -50.32
472,2360000000.00,    -60.13
473,2365000000.00,    -52.40
474,2370000000.00,    -58.70
475,2375000000.00,    -52.99
476,2380000000.00,    -58.66
477,2385000000.00,    -49.93
478,2390000000.00,    -57.51
479,2395000000.00,    -51.86
480,2400000000.00,    -59.38
481,2405000000.00,    -51.20
482,2410000000.00,    -60.97
483,2415000000.00,    -51.71
484,2420000000.00,    -60.51
485,2425000000.00,    -52.70
486,2430000000.00,    -63.91
487,2435000000.00,    -52.99
488,2440000000.00,    -58.77
489,2445000000.00,    -52.84
490,2450000000.00,    -57.92
491,2455000000.00,    -52.17
492,2460000000.00,    -60.61
493,2465000000.00,    -51.22
494,2470000000.00,    -60.63
495,2475000000.00,    -52.74
496,2480000000.00,    -59.77
497,2485000000.00,    -51.72
498,2490000000.00,    -59.13
499,2495000000.00,    -52.42
500,2500000000.00,    -58.06
501,2505000000.00,    -53.58
502,2510000000.00,    -58.63
503,2515000000.00,    -50.57
504,2520000000.00,    -58.97
505,2525000000.00,    -49.95
506,2530000000.00,    -59.90
507,2535000000.00,    -52.60
508,2540000000.00,    -59.96
509,2545000000.00,    -51.80
510,2550000000.00,    -57.63
511,2555000000.00,    -51.40
512,2560000000.00,    -59.54
513,2565000000.00,    -49.77
514,2570000000.00,    -59.21
515,2575000000.00,    -51.09
516,2580000000.00,    -60.32
517,2585000000.00,    -49.82
518,2590000000.00,    -56.97
519,2595000000.00,    -50.72
520,2600000000.00,    -57.97
521,2605000000.00,    -51.35
522,2610000000.00,    -58.20
523,2615000000.00,    -50.69
524,2620000000.00,    -60.53
525,2625000000.00,    -52.81
526,2630000000.00,    -58.92
527,2635000000.00,    -53.10
528,2640000000.00,    -61.41
529,2645000000.00,    -51.89
530,2650000000.00,    -59.24
531,2655000000.00,    -52.92
532,2660000000.00,    -60.04
533,2665000000.00,    -51.14
534,2670000000.00,    -61.75
535,2675000000.00,    -52.37
536,2680000000.00,    -63.26
537,2685000000.00,    -52.64
538,2690000000.00,    -56.54
539,2695000000.00,    -51.85
540,2700000000.00,    -56.57
541,2705000000.00,    -50.74
542,2710000000.00,    -58.86
543,2715000000.00,    -52.23
544,2720000000.00,    -57.72
545,2725000000.00,    -51.25
546,2730000000.00,    -60.74
547,2735000000.00,    -49.78
548,2740000000.00,    -60.07
549,2745000000.00,    -51.95
550,2750000000.00,    -57.37
551,2755000000.00,    -51.19
552,2760000000.00,    -55.86
553,2765000000.00,    -52.79
554,2770000000.00,    -58.09
555,2775000000.00,    -50.04
556,2780000000.00,    -57.93
557,2785000000.00,    -53.50
558,2790000000.00,    -57.59
559,2795000000.00,    -51.95
560,2800000000.00,    -56.93
561,2805000000.00,    -52.10
562,2810000000.00,    -58.09
563,2815000000.00,    -48.92
564,2820000000.00,    -59.96
565,2825000000.00,    -52.10
566,2830000000.00,    -56.48
567,2835000000.00,    -51.78
568,2840000000.00,    -56.96
569,2845000000.00,    -50.10
570,2850000000.00,    -60.32
571,2855000000.00,    -50.79
572,2860000000.00,    -61.34
573,2865000000.00,    -51.60
574,2870000000.00,    -61.72
575,2875000000.00,    -52.75
576,2880000000.00,    -59.89
577,2885000000.00,    -52.28
578,2890000000.00,    -59.57
579,2895000000.00,    -49.22
580,2900000000.00,    -59.44
581,2905000000.00,    -52.05
582,2910000000.00,    -59.10
583,2915000000.00,    -51.10
584,2920000000.00,    -61.66
585,2925000000.00,    -49.00
586,2930000000.00,    -57.33
587,2935000000.00,    -51.40
588,2940000000.00,    -63.81
589,2945000000.00,    -52.21
590,2950000000.00,    -60.73
591,2955000000.00,    -51.50
592,2960000000.00,    -59.57
593,2965000000.00,    -51.70
594,2970000000.00,    -59.29
595,2975000000.00,    -50.95
596,2980000000.00,    -55.78
597,2985000000.00,    -49.78
598,2990000000.00,    -55.41
599,2995000000.00,    -51.39
600,3000000000.00,    -60.09
