Model,MSO3054
Firmware Version,2.31

Waveform Type,Analog
Point Format,Y
Horizontal Units,s
Horizontal Scale,4e-06
Horizontal Delay,0
Sample Interval,4e-09
Record Length,10000
Gating,0.0% to 100.0%
Probe Attenuation,1
Vertical Units,V
Vertical Offset,0
Vertical Scale,0.02
Vertical Position,0
Label,
TIME,CH1
-2.0000e-05,0.004
-1.9996e-05,-0.0632
-1.9992e-05,0.0688
-1.9988e-05,-0.0072
-1.9984e-05,-0.0584
-1.9980e-05,0.0736
-1.9976e-05,-0.0184
-1.9972e-05,-0.0528
-1.9968e-05,0.076
-1.9964e-05,-0.0272
-1.9960e-05,-0.0432
-1.9956e-05,0.0768
-1.9952e-05,-0.0392
-1.9948e-05,-0.0328
-1.9944e-05,0.0776
-1.9940e-05,-0.0464
-1.9936e-05,-0.0208
-1.9932e-05,0.0752
-1.9928e-05,-0.0552
-1.9924e-05,-0.0096
-1.9920e-05,0.0712
-1.9916e-05,-0.06
-1.9912e-05,0.0024
-1.9908e-05,0.0624
-1.9904e-05,-0.068
-1.9900e-05,0.0112
-1.9896e-05,0.0568
-1.9892e-05,-0.072
-1.9888e-05,0.0248
-1.9884e-05,0.0512
-1.9880e-05,-0.0736
-1.9876e-05,0.0352
-1.9872e-05,0.0376
-1.9868e-05,-0.0792
-1.9864e-05,0.0432
-1.9860e-05,0.0288
-1.9856e-05,-0.0768
-1.9852e-05,0.0528
-1.9848e-05,0.0176
-1.9844e-05,-0.0712
-1.9840e-05,0.0656
-1.9836e-05,0.0056
-1.9832e-05,-0.0664
-1.9828e-05,0.0688
-1.9824e-05,-0.004
-1.9820e-05,-0.06
-1.9816e-05,0.0752
-1.9812e-05,-0.0184
-1.9808e-05,-0.0536
-1.9804e-05,0.0752
-1.9800e-05,-0.0264
-1.9796e-05,-0.0432
-1.9792e-05,0.0792
-1.9788e-05,-0.0392
-1.9784e-05,-0.04
-1.9780e-05,0.0784
-1.9776e-05,-0.0432
-1.9772e-05,-0.024
-1.9768e-05,0.0752
-1.9764e-05,-0.056
-1.9760e-05,-0.012
-1.9756e-05,0.0696
-1.9752e-05,-0.0632
-1.9748e-05,-0.0008
-1.9744e-05,0.0648
-1.9740e-05,-0.0696
-1.9736e-05,0.0104
-1.9732e-05,0.0584
-1.9728e-05,-0.0688
-1.9724e-05,0.0232
-1.9720e-05,0.0536
-1.9716e-05,-0.0752
-1.9712e-05,0.0304
-1.9708e-05,0.0432
-1.9704e-05,-0.0744
-1.9700e-05,0.044
-1.9696e-05,0.0288
-1.9692e-05,-0.0728
-1.9688e-05,0.0544
-1.9684e-05,0.0144
-1.9680e-05,-0.0736
-1.9676e-05,0.0616
-1.9672e-05,0.012
-1.9668e-05,-0.068
-1.9664e-05,0.064
-1.9660e-05,-0.0016
-1.9656e-05,-0.0632
-1.9652e-05,0.0704
-1.9648e-05,-0.0128
-1.9644e-05,-0.0568
-1.9640e-05,0.0768
-1.9636e-05,-0.0256
-1.9632e-05,-0.0472
-1.9628e-05,0.0744
-1.9624e-05,-0.0376
-1.9620e-05,-0.0352
-1.9616e-05,0.08
-1.9612e-05,-0.0432
-1.9608e-05,-0.0256
-1.9604e-05,0.0752
-1.9600e-05,-0.0568
-1.9596e-05,-0.0136
-1.9592e-05,0.0704
-1.9588e-05,-0.0616
-1.9584e-05,-0.004
-1.9580e-05,0.0704
-1.9576e-05,-0.0664
-1.9572e-05,0.0112
-1.9568e-05,0.0632
-1.9564e-05,-0.0712
-1.9560e-05,0.0216
-1.9556e-05,0.0512
-1.9552e-05,-0.076
-1.9548e-05,0.0328
-1.9544e-05,0.0448
-1.9540e-05,-0.0744
-1.9536e-05,0.044
-1.9532e-05,0.0312
-1.9528e-05,-0.076
-1.9524e-05,0.0512
-1.9520e-05,0.0216
-1.9516e-05,-0.0752
-1.9512e-05,0.0616
-1.9508e-05,0.0096
-1.9504e-05,-0.068
-1.9500e-05,0.064
-1.9496e-05,-0.0016
-1.9492e-05,-0.0632
-1.9488e-05,0.0712
-1.9484e-05,-0.0136
-1.9480e-05,-0.0552
-1.9476e-05,0.0792
-1.9472e-05,-0.0248
-1.9468e-05,-0.0472
-1.9464e-05,0.0776
-1.9460e-05,-0.036
-1.9456e-05,-0.04
-1.9452e-05,0.0784
-1.9448e-05,-0.0456
-1.9444e-05,-0.0272
-1.9440e-05,0.076
-1.9436e-05,-0.0544
-1.9432e-05,-0.016
-1.9428e-05,0.0744
-1.9424e-05,-0.0616
-1.9420e-05,-0.0024
-1.9416e-05,0.068
-1.9412e-05,-0.068
-1.9408e-05,0.0096
-1.9404e-05,0.0608
-1.9400e-05,-0.072
-1.9396e-05,0.0232
-1.9392e-05,0.0496
-1.9388e-05,-0.0744
-1.9384e-05,0.028
-1.9380e-05,0.044
-1.9376e-05,-0.0776
-1.9372e-05,0.0448
-1.9368e-05,0.0368
-1.9364e-05,-0.0744
-1.9360e-05,0.052
-1.9356e-05,0.0216
-1.9352e-05,-0.0744
-1.9348e-05,0.0568
-1.9344e-05,0.0128
-1.9340e-05,-0.0696
-1.9336e-05,0.0664
-1.9332e-05,-0.0016
-1.9328e-05,-0.0632
-1.9324e-05,0.0704
-1.9320e-05,-0.0096
-1.9316e-05,-0.0544
-1.9312e-05,0.0744
-1.9308e-05,-0.0224
-1.9304e-05,-0.0464
-1.9300e-05,0.0768
-1.9296e-05,-0.0336
-1.9292e-05,-0.036
-1.9288e-05,0.0776
-1.9284e-05,-0.04
-1.9280e-05,-0.0272
-1.9276e-05,0.0744
-1.9272e-05,-0.0504
-1.9268e-05,-0.0184
-1.9264e-05,0.0728
-1.9260e-05,-0.0576
-1.9256e-05,-0.0064
-1.9252e-05,0.0672
-1.9248e-05,-0.0648
-1.9244e-05,0.008
-1.9240e-05,0.064
-1.9236e-05,-0.0696
-1.9232e-05,0.0136
-1.9228e-05,0.0544
-1.9224e-05,-0.072
-1.9220e-05,0.0304
-1.9216e-05,0.048
-1.9212e-05,-0.0752
-1.9208e-05,0.0392
-1.9204e-05,0.0376
-1.9200e-05,-0.0744
-1.9196e-05,0.0456
-1.9192e-05,0.024
-1.9188e-05,-0.0736
-1.9184e-05,0.0576
-1.9180e-05,0.0128
-1.9176e-05,-0.0712
-1.9172e-05,0.0648
-1.9168e-05,-0.0016
-1.9164e-05,-0.0672
-1.9160e-05,0.072
-1.9156e-05,-0.0112
-1.9152e-05,-0.056
-1.9148e-05,0.076
-1.9144e-05,-0.02
-1.9140e-05,-0.0488
-1.9136e-05,0.0752
-1.9132e-05,-0.0304
-1.9128e-05,-0.0368
-1.9124e-05,0.0776
-1.9120e-05,-0.0408
-1.9116e-05,-0.032
-1.9112e-05,0.0784
-1.9108e-05,-0.0512
-1.9104e-05,-0.02
-1.9100e-05,0.0744
-1.9096e-05,-0.0568
-1.9092e-05,-0.008
-1.9088e-05,0.068
-1.9084e-05,-0.0656
-1.9080e-05,0.0072
-1.9076e-05,0.0616
-1.9072e-05,-0.0688
-1.9068e-05,0.016
-1.9064e-05,0.0552
-1.9060e-05,-0.072
-1.9056e-05,0.0264
-1.9052e-05,0.044
-1.9048e-05,-0.072
-1.9044e-05,0.0384
-1.9040e-05,0.04
-1.9036e-05,-0.0752
-1.9032e-05,0.0456
-1.9028e-05,0.0256
-1.9024e-05,-0.072
-1.9020e-05,0.0552
-1.9016e-05,0.0184
-1.9012e-05,-0.0672
-1.9008e-05,0.0624
-1.9004e-05,0.008
-1.9000e-05,-0.0648
-1.8996e-05,0.0728
-1.8992e-05,-0.0072
-1.8988e-05,-0.0576
-1.8984e-05,0.0744
-1.8980e-05,-0.0224
-1.8976e-05,-0.048
-1.8972e-05,0.0768
-1.8968e-05,-0.032
-1.8964e-05,-0.0424
-1.8960e-05,0.0768
-1.8956e-05,-0.04
-1.8952e-05,-0.0312
-1.8948e-05,0.076
-1.8944e-05,-0.0488
-1.8940e-05,-0.0208
-1.8936e-05,0.0744
-1.8932e-05,-0.0584
-1.8928e-05,-0.008
-1.8924e-05,0.0696
-1.8920e-05,-0.0632
-1.8916e-05,0.004
-1.8912e-05,0.0672
-1.8908e-05,-0.0696
-1.8904e-05,0.0152
-1.8900e-05,0.0536
-1.8896e-05,-0.076
-1.8892e-05,0.028
-1.8888e-05,0.0464
-1.8884e-05,-0.0752
-1.8880e-05,0.0344
-1.8876e-05,0.0368
-1.8872e-05,-0.0776
-1.8868e-05,0.0456
-1.8864e-05,0.0304
-1.8860e-05,-0.0712
-1.8856e-05,0.052
-1.8852e-05,0.0176
-1.8848e-05,-0.072
-1.8844e-05,0.0624
-1.8840e-05,0.0048
-1.8836e-05,-0.068
-1.8832e-05,0.072
-1.8828e-05,-0.0064
-1.8824e-05,-0.0592
-1.8820e-05,0.0728
-1.8816e-05,-0.0192
-1.8812e-05,-0.0544
-1.8808e-05,0.0784
-1.8804e-05,-0.0296
-1.8800e-05,-0.0448
-1.8796e-05,0.0768
-1.8792e-05,-0.0352
-1.8788e-05,-0.0352
-1.8784e-05,0.0752
-1.8780e-05,-0.0432
-1.8776e-05,-0.0272
-1.8772e-05,0.0752
-1.8768e-05,-0.0552
-1.8764e-05,-0.0112
-1.8760e-05,0.0752
-1.8756e-05,-0.0632
-1.8752e-05,-0.0008
-1.8748e-05,0.0648
-1.8744e-05,-0.0688
-1.8740e-05,0.0128
-1.8736e-05,0.0584
-1.8732e-05,-0.072
-1.8728e-05,0.0208
-1.8724e-05,0.0512
-1.8720e-05,-0.0744
-1.8716e-05,0.0352
-1.8712e-05,0.0432
-1.8708e-05,-0.0784
-1.8704e-05,0.0448
-1.8700e-05,0.0304
-1.8696e-05,-0.072
-1.8692e-05,0.0512
-1.8688e-05,0.0168
-1.8684e-05,-0.068
-1.8680e-05,0.0624
-1.8676e-05,0.0064
-1.8672e-05,-0.068
-1.8668e-05,0.0656
-1.8664e-05,-0.0056
-1.8660e-05,-0.0576
-1.8656e-05,0.076
-1.8652e-05,-0.0136
-1.8648e-05,-0.0544
-1.8644e-05,0.076
-1.8640e-05,-0.0272
-1.8636e-05,-0.044
-1.8632e-05,0.0776
-1.8628e-05,-0.036
-1.8624e-05,-0.0328
-1.8620e-05,0.0744
-1.8616e-05,-0.0448
-1.8612e-05,-0.0184
-1.8608e-05,0.0776
-1.8604e-05,-0.056
-1.8600e-05,-0.0152
-1.8596e-05,0.0728
-1.8592e-05,-0.06
-1.8588e-05,-0.0024
-1.8584e-05,0.0672
-1.8580e-05,-0.0696
-1.8576e-05,0.0096
-1.8572e-05,0.0592
-1.8568e-05,-0.072
-1.8564e-05,0.0168
-1.8560e-05,0.0528
-1.8556e-05,-0.0776
-1.8552e-05,0.0328
-1.8548e-05,0.044
-1.8544e-05,-0.0736
-1.8540e-05,0.0464
-1.8536e-05,0.0344
-1.8532e-05,-0.0728
-1.8528e-05,0.0512
-1.8524e-05,0.0192
-1.8520e-05,-0.072
-1.8516e-05,0.0584
-1.8512e-05,0.008
-1.8508e-05,-0.0688
-1.8504e-05,0.0648
-1.8500e-05,-0.0016
-1.8496e-05,-0.06
-1.8492e-05,0.0728
-1.8488e-05,-0.016
-1.8484e-05,-0.0544
-1.8480e-05,0.0736
-1.8476e-05,-0.024
-1.8472e-05,-0.0472
-1.8468e-05,0.08
-1.8464e-05,-0.0368
-1.8460e-05,-0.036
-1.8456e-05,0.0752
-1.8452e-05,-0.0432
-1.8448e-05,-0.0248
-1.8444e-05,0.0752
-1.8440e-05,-0.0544
-1.8436e-05,-0.0144
-1.8432e-05,0.0712
-1.8428e-05,-0.0608
-1.8424e-05,-0.0016
-1.8420e-05,0.0656
-1.8416e-05,-0.0656
-1.8412e-05,0.0072
-1.8408e-05,0.0608
-1.8404e-05,-0.0728
-1.8400e-05,0.0184
-1.8396e-05,0.0552
-1.8392e-05,-0.0752
-1.8388e-05,0.0328
-1.8384e-05,0.044
-1.8380e-05,-0.0768
-1.8376e-05,0.0408
-1.8372e-05,0.032
-1.8368e-05,-0.0736
-1.8364e-05,0.0488
-1.8360e-05,0.0232
-1.8356e-05,-0.0696
-1.8352e-05,0.0616
-1.8348e-05,0.0096
-1.8344e-05,-0.0704
-1.8340e-05,0.0672
-1.8336e-05,-0.004
-1.8332e-05,-0.0608
-1.8328e-05,0.0728
-1.8324e-05,-0.0128
-1.8320e-05,-0.0568
-1.8316e-05,0.0768
-1.8312e-05,-0.0232
-1.8308e-05,-0.0456
-1.8304e-05,0.0776
-1.8300e-05,-0.032
-1.8296e-05,-0.0408
-1.8292e-05,0.076
-1.8288e-05,-0.0432
-1.8284e-05,-0.028
-1.8280e-05,0.0744
-1.8276e-05,-0.0512
-1.8272e-05,-0.0176
-1.8268e-05,0.0728
-1.8264e-05,-0.0592
-1.8260e-05,-0.0032
-1.8256e-05,0.068
-1.8252e-05,-0.0696
-1.8248e-05,0.0072
-1.8244e-05,0.064
-1.8240e-05,-0.0728
-1.8236e-05,0.0184
-1.8232e-05,0.052
-1.8228e-05,-0.076
-1.8224e-05,0.0296
-1.8220e-05,0.0456
-1.8216e-05,-0.0752
-1.8212e-05,0.04
-1.8208e-05,0.0344
-1.8204e-05,-0.0744
-1.8200e-05,0.048
-1.8196e-05,0.0216
-1.8192e-05,-0.0752
-1.8188e-05,0.06
-1.8184e-05,0.0144
-1.8180e-05,-0.068
-1.8176e-05,0.0648
-1.8172e-05,0
-1.8168e-05,-0.0656
-1.8164e-05,0.0712
-1.8160e-05,-0.0064
-1.8156e-05,-0.06
-1.8152e-05,0.0712
-1.8148e-05,-0.0208
-1.8144e-05,-0.0496
-1.8140e-05,0.0776
-1.8136e-05,-0.0336
-1.8132e-05,-0.0368
-1.8128e-05,0.076
-1.8124e-05,-0.0416
-1.8120e-05,-0.0288
-1.8116e-05,0.0776
-1.8112e-05,-0.0512
-1.8108e-05,-0.0208
-1.8104e-05,0.0752
-1.8100e-05,-0.0592
-1.8096e-05,-0.0056
-1.8092e-05,0.0696
-1.8088e-05,-0.064
-1.8084e-05,0.0072
-1.8080e-05,0.064
-1.8076e-05,-0.0704
-1.8072e-05,0.0176
-1.8068e-05,0.0576
-1.8064e-05,-0.0776
-1.8060e-05,0.0304
-1.8056e-05,0.0464
-1.8052e-05,-0.0768
-1.8048e-05,0.0384
-1.8044e-05,0.0352
-1.8040e-05,-0.0776
-1.8036e-05,0.0496
-1.8032e-05,0.0264
-1.8028e-05,-0.0744
-1.8024e-05,0.0544
-1.8020e-05,0.0184
-1.8016e-05,-0.0728
-1.8012e-05,0.064
-1.8008e-05,0.0008
-1.8004e-05,-0.0648
-1.8000e-05,0.0696
-1.7996e-05,-0.0088
-1.7992e-05,-0.0584
-1.7988e-05,0.072
-1.7984e-05,-0.0216
-1.7980e-05,-0.052
-1.7976e-05,0.0776
-1.7972e-05,-0.032
-1.7968e-05,-0.0416
-1.7964e-05,0.0776
-1.7960e-05,-0.0416
-1.7956e-05,-0.032
-1.7952e-05,0.0776
-1.7948e-05,-0.0496
-1.7944e-05,-0.0208
-1.7940e-05,0.0736
-1.7936e-05,-0.0568
-1.7932e-05,-0.008
-1.7928e-05,0.0696
-1.7924e-05,-0.0656
-1.7920e-05,0.0048
-1.7916e-05,0.0656
-1.7912e-05,-0.072
-1.7908e-05,0.0112
-1.7904e-05,0.0584
-1.7900e-05,-0.0736
-1.7896e-05,0.0264
-1.7892e-05,0.0456
-1.7888e-05,-0.076
-1.7884e-05,0.0368
-1.7880e-05,0.0416
-1.7876e-05,-0.076
-1.7872e-05,0.0472
-1.7868e-05,0.0288
-1.7864e-05,-0.0744
-1.7860e-05,0.0568
-1.7856e-05,0.016
-1.7852e-05,-0.0704
-1.7848e-05,0.064
-1.7844e-05,0.0016
-1.7840e-05,-0.0672
-1.7836e-05,0.0672
-1.7832e-05,-0.0072
-1.7828e-05,-0.0592
-1.7824e-05,0.0712
-1.7820e-05,-0.0184
-1.7816e-05,-0.0512
-1.7812e-05,0.0776
-1.7808e-05,-0.0272
-1.7804e-05,-0.044
-1.7800e-05,0.0768
-1.7796e-05,-0.04
-1.7792e-05,-0.0352
-1.7788e-05,0.0784
-1.7784e-05,-0.0456
-1.7780e-05,-0.0216
-1.7776e-05,0.076
-1.7772e-05,-0.0576
-1.7768e-05,-0.0088
-1.7764e-05,0.072
-1.7760e-05,-0.0656
-1.7756e-05,0
-1.7752e-05,0.0624
-1.7748e-05,-0.068
-1.7744e-05,0.0136
-1.7740e-05,0.0584
-1.7736e-05,-0.0736
-1.7732e-05,0.0248
-1.7728e-05,0.052
-1.7724e-05,-0.0776
-1.7720e-05,0.0352
-1.7716e-05,0.0432
-1.7712e-05,-0.0776
-1.7708e-05,0.044
-1.7704e-05,0.0288
-1.7700e-05,-0.0728
-1.7696e-05,0.052
-1.7692e-05,0.0168
-1.7688e-05,-0.0728
-1.7684e-05,0.0624
-1.7680e-05,0.0072
-1.7676e-05,-0.0696
-1.7672e-05,0.0664
-1.7668e-05,-0.0024
-1.7664e-05,-0.06
-1.7660e-05,0.0712
-1.7656e-05,-0.016
-1.7652e-05,-0.0536
-1.7648e-05,0.0768
-1.7644e-05,-0.0272
-1.7640e-05,-0.044
-1.7636e-05,0.0752
-1.7632e-05,-0.0344
-1.7628e-05,-0.0344
-1.7624e-05,0.0752
-1.7620e-05,-0.0456
-1.7616e-05,-0.0248
-1.7612e-05,0.0768
-1.7608e-05,-0.0568
-1.7604e-05,-0.0112
-1.7600e-05,0.0696
-1.7596e-05,-0.0656
-1.7592e-05,-0.0016
-1.7588e-05,0.0672
-1.7584e-05,-0.0688
-1.7580e-05,0.0112
-1.7576e-05,0.0576
-1.7572e-05,-0.0752
-1.7568e-05,0.0224
-1.7564e-05,0.0504
-1.7560e-05,-0.076
-1.7556e-05,0.0304
-1.7552e-05,0.0432
-1.7548e-05,-0.0776
-1.7544e-05,0.0456
-1.7540e-05,0.0296
-1.7536e-05,-0.076
-1.7532e-05,0.0544
-1.7528e-05,0.0192
-1.7524e-05,-0.0744
-1.7520e-05,0.0624
-1.7516e-05,0.008
-1.7512e-05,-0.0672
-1.7508e-05,0.0688
-1.7504e-05,-0.0032
-1.7500e-05,-0.0624
-1.7496e-05,0.0712
-1.7492e-05,-0.0144
-1.7488e-05,-0.0552
-1.7484e-05,0.0736
-1.7480e-05,-0.0256
-1.7476e-05,-0.0456
-1.7472e-05,0.076
-1.7468e-05,-0.0344
-1.7464e-05,-0.0336
-1.7460e-05,0.0808
-1.7456e-05,-0.0456
-1.7452e-05,-0.0248
-1.7448e-05,0.0736
-1.7444e-05,-0.0536
-1.7440e-05,-0.0144
-1.7436e-05,0.068
-1.7432e-05,-0.0624
-1.7428e-05,-0.0016
-1.7424e-05,0.0672
-1.7420e-05,-0.068
-1.7416e-05,0.0088
-1.7412e-05,0.0568
-1.7408e-05,-0.0704
-1.7404e-05,0.0208
-1.7400e-05,0.0512
-1.7396e-05,-0.076
-1.7392e-05,0.032
-1.7388e-05,0.0416
-1.7384e-05,-0.0768
-1.7380e-05,0.044
-1.7376e-05,0.0328
-1.7372e-05,-0.0736
-1.7368e-05,0.0512
-1.7364e-05,0.0248
-1.7360e-05,-0.0712
-1.7356e-05,0.0584
-1.7352e-05,0.0112
-1.7348e-05,-0.0688
-1.7344e-05,0.0688
-1.7340e-05,-0.0008
-1.7336e-05,-0.0624
-1.7332e-05,0.0704
-1.7328e-05,-0.0096
-1.7324e-05,-0.056
-1.7320e-05,0.076
-1.7316e-05,-0.0248
-1.7312e-05,-0.0504
-1.7308e-05,0.0768
-1.7304e-05,-0.036
-1.7300e-05,-0.0384
-1.7296e-05,0.0776
-1.7292e-05,-0.0448
-1.7288e-05,-0.028
-1.7284e-05,0.0792
-1.7280e-05,-0.0536
-1.7276e-05,-0.0128
-1.7272e-05,0.0744
-1.7268e-05,-0.0624
-1.7264e-05,-0.0064
-1.7260e-05,0.0672
-1.7256e-05,-0.068
-1.7252e-05,0.0088
-1.7248e-05,0.06
-1.7244e-05,-0.0704
-1.7240e-05,0.016
-1.7236e-05,0.0528
-1.7232e-05,-0.0744
-1.7228e-05,0.028
-1.7224e-05,0.0448
-1.7220e-05,-0.0736
-1.7216e-05,0.0432
-1.7212e-05,0.0328
-1.7208e-05,-0.076
-1.7204e-05,0.0512
-1.7200e-05,0.024
-1.7196e-05,-0.072
-1.7192e-05,0.056
-1.7188e-05,0.0136
-1.7184e-05,-0.0696
-1.7180e-05,0.0648
-1.7176e-05,0.0016
-1.7172e-05,-0.0648
-1.7168e-05,0.0728
-1.7164e-05,-0.0088
-1.7160e-05,-0.0616
-1.7156e-05,0.0752
-1.7152e-05,-0.02
-1.7148e-05,-0.0488
-1.7144e-05,0.076
-1.7140e-05,-0.0344
-1.7136e-05,-0.0392
-1.7132e-05,0.076
-1.7128e-05,-0.0472
-1.7124e-05,-0.0312
-1.7120e-05,0.0768
-1.7116e-05,-0.0488
-1.7112e-05,-0.0168
-1.7108e-05,0.072
-1.7104e-05,-0.0592
-1.7100e-05,-0.004
-1.7096e-05,0.0672
-1.7092e-05,-0.0664
-1.7088e-05,0.0072
-1.7084e-05,0.0624
-1.7080e-05,-0.0712
-1.7076e-05,0.016
-1.7072e-05,0.0536
-1.7068e-05,-0.076
-1.7064e-05,0.028
-1.7060e-05,0.0456
-1.7056e-05,-0.0792
-1.7052e-05,0.0376
-1.7048e-05,0.0328
-1.7044e-05,-0.0776
-1.7040e-05,0.0496
-1.7036e-05,0.0264
-1.7032e-05,-0.072
-1.7028e-05,0.0568
-1.7024e-05,0.0112
-1.7020e-05,-0.0688
-1.7016e-05,0.068
-1.7012e-05,0.0048
-1.7008e-05,-0.0648
-1.7004e-05,0.0712
-1.7000e-05,-0.0096
-1.6996e-05,-0.0552
-1.6992e-05,0.0728
-1.6988e-05,-0.02
-1.6984e-05,-0.048
-1.6980e-05,0.076
-1.6976e-05,-0.032
-1.6972e-05,-0.04
-1.6968e-05,0.0784
-1.6964e-05,-0.0424
-1.6960e-05,-0.0272
-1.6956e-05,0.076
-1.6952e-05,-0.0496
-1.6948e-05,-0.0208
-1.6944e-05,0.0736
-1.6940e-05,-0.0576
-1.6936e-05,-0.004
-1.6932e-05,0.0672
-1.6928e-05,-0.0656
-1.6924e-05,0.004
-1.6920e-05,0.0624
-1.6916e-05,-0.0744
-1.6912e-05,0.0168
-1.6908e-05,0.0528
-1.6904e-05,-0.0744
-1.6900e-05,0.0272
-1.6896e-05,0.0496
-1.6892e-05,-0.076
-1.6888e-05,0.0344
-1.6884e-05,0.036
-1.6880e-05,-0.076
-1.6876e-05,0.048
-1.6872e-05,0.0272
-1.6868e-05,-0.0768
-1.6864e-05,0.056
-1.6860e-05,0.0168
-1.6856e-05,-0.072
-1.6852e-05,0.0648
-1.6848e-05,0.0024
-1.6844e-05,-0.064
-1.6840e-05,0.0656
-1.6836e-05,-0.0064
-1.6832e-05,-0.0608
-1.6828e-05,0.0744
-1.6824e-05,-0.02
-1.6820e-05,-0.052
-1.6816e-05,0.0784
-1.6812e-05,-0.0296
-1.6808e-05,-0.0408
-1.6804e-05,0.0808
-1.6800e-05,-0.0392
-1.6796e-05,-0.0312
-1.6792e-05,0.0768
-1.6788e-05,-0.0496
-1.6784e-05,-0.0192
-1.6780e-05,0.0728
-1.6776e-05,-0.0584
-1.6772e-05,-0.0072
-1.6768e-05,0.0704
-1.6764e-05,-0.0656
-1.6760e-05,0.0088
-1.6756e-05,0.0648
-1.6752e-05,-0.0696
-1.6748e-05,0.0152
-1.6744e-05,0.0552
-1.6740e-05,-0.0736
-1.6736e-05,0.0264
-1.6732e-05,0.0496
-1.6728e-05,-0.0744
-1.6724e-05,0.036
-1.6720e-05,0.0376
-1.6716e-05,-0.0736
-1.6712e-05,0.0472
-1.6708e-05,0.0264
-1.6704e-05,-0.0744
-1.6700e-05,0.0536
-1.6696e-05,0.0184
-1.6692e-05,-0.072
-1.6688e-05,0.0616
-1.6684e-05,0.0032
-1.6680e-05,-0.0672
-1.6676e-05,0.0688
-1.6672e-05,-0.0056
-1.6668e-05,-0.06
-1.6664e-05,0.0736
-1.6660e-05,-0.0168
-1.6656e-05,-0.0504
-1.6652e-05,0.0792
-1.6648e-05,-0.0248
-1.6644e-05,-0.044
-1.6640e-05,0.0744
-1.6636e-05,-0.04
-1.6632e-05,-0.0352
-1.6628e-05,0.0768
-1.6624e-05,-0.048
-1.6620e-05,-0.0184
-1.6616e-05,0.0768
-1.6612e-05,-0.056
-1.6608e-05,-0.012
-1.6604e-05,0.0696
-1.6600e-05,-0.064
-1.6596e-05,0.0024
-1.6592e-05,0.064
-1.6588e-05,-0.0696
-1.6584e-05,0.0104
-1.6580e-05,0.0576
-1.6576e-05,-0.072
-1.6572e-05,0.02
-1.6568e-05,0.0504
-1.6564e-05,-0.0784
-1.6560e-05,0.0368
-1.6556e-05,0.04
-1.6552e-05,-0.0768
-1.6548e-05,0.0448
-1.6544e-05,0.028
-1.6540e-05,-0.0736
-1.6536e-05,0.056
-1.6532e-05,0.0168
-1.6528e-05,-0.072
-1.6524e-05,0.0616
-1.6520e-05,0.0072
-1.6516e-05,-0.0664
-1.6512e-05,0.0704
-1.6508e-05,-0.0024
-1.6504e-05,-0.0592
-1.6500e-05,0.0736
-1.6496e-05,-0.0168
-1.6492e-05,-0.0528
-1.6488e-05,0.0752
-1.6484e-05,-0.0272
-1.6480e-05,-0.044
-1.6476e-05,0.0792
-1.6472e-05,-0.0384
-1.6468e-05,-0.0328
-1.6464e-05,0.076
-1.6460e-05,-0.0472
-1.6456e-05,-0.0264
-1.6452e-05,0.0728
-1.6448e-05,-0.0528
-1.6444e-05,-0.0112
-1.6440e-05,0.0712
-1.6436e-05,-0.0632
-1.6432e-05,0
-1.6428e-05,0.0648
-1.6424e-05,-0.0704
-1.6420e-05,0.0112
-1.6416e-05,0.0584
-1.6412e-05,-0.0728
-1.6408e-05,0.0176
-1.6404e-05,0.0496
-1.6400e-05,-0.0704
-1.6396e-05,0.0328
-1.6392e-05,0.0416
-1.6388e-05,-0.076
-1.6384e-05,0.0432
-1.6380e-05,0.0312
-1.6376e-05,-0.072
-1.6372e-05,0.0504
-1.6368e-05,0.02
-1.6364e-05,-0.072
-1.6360e-05,0.0592
-1.6356e-05,0.0088
-1.6352e-05,-0.0704
-1.6348e-05,0.0664
-1.6344e-05,-0.004
-1.6340e-05,-0.064
-1.6336e-05,0.0752
-1.6332e-05,-0.0152
-1.6328e-05,-0.0552
-1.6324e-05,0.0776
-1.6320e-05,-0.0264
-1.6316e-05,-0.0472
-1.6312e-05,0.08
-1.6308e-05,-0.0352
-1.6304e-05,-0.0344
-1.6300e-05,0.076
-1.6296e-05,-0.0464
-1.6292e-05,-0.0256
-1.6288e-05,0.0776
-1.6284e-05,-0.0536
-1.6280e-05,-0.0144
-1.6276e-05,0.0728
-1.6272e-05,-0.0624
-1.6268e-05,-0.0024
-1.6264e-05,0.068
-1.6260e-05,-0.0696
-1.6256e-05,0.0096
-1.6252e-05,0.0616
-1.6248e-05,-0.072
-1.6244e-05,0.0224
-1.6240e-05,0.0528
-1.6236e-05,-0.072
-1.6232e-05,0.0304
-1.6228e-05,0.0424
-1.6224e-05,-0.076
-1.6220e-05,0.0416
-1.6216e-05,0.0288
-1.6212e-05,-0.0744
-1.6208e-05,0.0512
-1.6204e-05,0.0224
-1.6200e-05,-0.0736
-1.6196e-05,0.0608
-1.6192e-05,0.0104
-1.6188e-05,-0.0672
-1.6184e-05,0.0664
-1.6180e-05,-0.0032
-1.6176e-05,-0.064
-1.6172e-05,0.0712
-1.6168e-05,-0.0104
-1.6164e-05,-0.0544
-1.6160e-05,0.0736
-1.6156e-05,-0.0256
-1.6152e-05,-0.0472
-1.6148e-05,0.076
-1.6144e-05,-0.0344
-1.6140e-05,-0.036
-1.6136e-05,0.0776
-1.6132e-05,-0.0456
-1.6128e-05,-0.0264
-1.6124e-05,0.0768
-1.6120e-05,-0.052
-1.6116e-05,-0.0136
-1.6112e-05,0.0752
-1.6108e-05,-0.0608
-1.6104e-05,-0.0056
-1.6100e-05,0.068
-1.6096e-05,-0.0688
-1.6092e-05,0.008
-1.6088e-05,0.06
-1.6084e-05,-0.072
-1.6080e-05,0.0224
-1.6076e-05,0.0528
-1.6072e-05,-0.072
-1.6068e-05,0.0272
-1.6064e-05,0.0432
-1.6060e-05,-0.0744
-1.6056e-05,0.0408
-1.6052e-05,0.0336
-1.6048e-05,-0.0752
-1.6044e-05,0.0512
-1.6040e-05,0.0264
-1.6036e-05,-0.0744
-1.6032e-05,0.0584
-1.6028e-05,0.0128
-1.6024e-05,-0.0672
-1.6020e-05,0.0664
-1.6016e-05,0
-1.6012e-05,-0.0632
-1.6008e-05,0.068
-1.6004e-05,-0.0112
-1.6000e-05,-0.056
-1.5996e-05,0.0744
-1.5992e-05,-0.0256
-1.5988e-05,-0.048
-1.5984e-05,0.0784
-1.5980e-05,-0.032
-1.5976e-05,-0.0384
-1.5972e-05,0.0744
-1.5968e-05,-0.0432
-1.5964e-05,-0.0304
-1.5960e-05,0.0752
-1.5956e-05,-0.0528
-1.5952e-05,-0.0184
-1.5948e-05,0.0752
-1.5944e-05,-0.0576
-1.5940e-05,-0.0024
-1.5936e-05,0.068
-1.5932e-05,-0.0648
-1.5928e-05,0.004
-1.5924e-05,0.0616
-1.5920e-05,-0.0672
-1.5916e-05,0.0152
-1.5912e-05,0.0528
-1.5908e-05,-0.0744
-1.5904e-05,0.0304
-1.5900e-05,0.0472
-1.5896e-05,-0.0752
-1.5892e-05,0.04
-1.5888e-05,0.0344
-1.5884e-05,-0.0736
-1.5880e-05,0.0496
-1.5876e-05,0.0256
-1.5872e-05,-0.072
-1.5868e-05,0.0544
-1.5864e-05,0.0152
-1.5860e-05,-0.0712
-1.5856e-05,0.0656
-1.5852e-05,0.0024
-1.5848e-05,-0.0648
-1.5844e-05,0.0704
-1.5840e-05,-0.0088
-1.5836e-05,-0.0576
-1.5832e-05,0.0728
-1.5828e-05,-0.02
-1.5824e-05,-0.0488
-1.5820e-05,0.076
-1.5816e-05,-0.0312
-1.5812e-05,-0.0416
-1.5808e-05,0.0776
-1.5804e-05,-0.0424
-1.5800e-05,-0.028
-1.5796e-05,0.0784
-1.5792e-05,-0.0504
-1.5788e-05,-0.02
-1.5784e-05,0.0752
-1.5780e-05,-0.056
-1.5776e-05,-0.008
-1.5772e-05,0.0704
-1.5768e-05,-0.0624
-1.5764e-05,0.0048
-1.5760e-05,0.0632
-1.5756e-05,-0.0696
-1.5752e-05,0.016
-1.5748e-05,0.0528
-1.5744e-05,-0.0736
-1.5740e-05,0.0288
-1.5736e-05,0.0496
-1.5732e-05,-0.0768
-1.5728e-05,0.04
-1.5724e-05,0.0384
-1.5720e-05,-0.0752
-1.5716e-05,0.0472
-1.5712e-05,0.0288
-1.5708e-05,-0.0736
-1.5704e-05,0.0568
-1.5700e-05,0.0152
-1.5696e-05,-0.068
-1.5692e-05,0.06
-1.5688e-05,0.0032
-1.5684e-05,-0.0648
-1.5680e-05,0.0712
-1.5676e-05,-0.0056
-1.5672e-05,-0.0592
-1.5668e-05,0.0736
-1.5664e-05,-0.0208
-1.5660e-05,-0.052
-1.5656e-05,0.0768
-1.5652e-05,-0.0304
-1.5648e-05,-0.0424
-1.5644e-05,0.0776
-1.5640e-05,-0.0424
-1.5636e-05,-0.0296
-1.5632e-05,0.076
-1.5628e-05,-0.0496
-1.5624e-05,-0.02
-1.5620e-05,0.0736
-1.5616e-05,-0.0592
-1.5612e-05,-0.0088
-1.5608e-05,0.068
-1.5604e-05,-0.0608
-1.5600e-05,0.0016
-1.5596e-05,0.0664
-1.5592e-05,-0.0688
-1.5588e-05,0.012
-1.5584e-05,0.0528
-1.5580e-05,-0.0736
-1.5576e-05,0.0264
-1.5572e-05,0.0488
-1.5568e-05,-0.0752
-1.5564e-05,0.0384
-1.5560e-05,0.036
-1.5556e-05,-0.0752
-1.5552e-05,0.0432
-1.5548e-05,0.0296
-1.5544e-05,-0.072
-1.5540e-05,0.0536
-1.5536e-05,0.0168
-1.5532e-05,-0.0704
-1.5528e-05,0.0656
-1.5524e-05,0.0024
-1.5520e-05,-0.0664
-1.5516e-05,0.0688
-1.5512e-05,-0.0056
-1.5508e-05,-0.0608
-1.5504e-05,0.0712
-1.5500e-05,-0.0168
-1.5496e-05,-0.052
-1.5492e-05,0.0744
-1.5488e-05,-0.0288
-1.5484e-05,-0.0432
-1.5480e-05,0.0784
-1.5476e-05,-0.04
-1.5472e-05,-0.0312
-1.5468e-05,0.0752
-1.5464e-05,-0.048
-1.5460e-05,-0.0208
-1.5456e-05,0.0736
-1.5452e-05,-0.0576
-1.5448e-05,-0.0112
-1.5444e-05,0.0696
-1.5440e-05,-0.0648
-1.5436e-05,-0.0008
-1.5432e-05,0.064
-1.5428e-05,-0.064
-1.5424e-05,0.012
-1.5420e-05,0.0584
-1.5416e-05,-0.0728
-1.5412e-05,0.0256
-1.5408e-05,0.0496
-1.5404e-05,-0.0752
-1.5400e-05,0.036
-1.5396e-05,0.0424
-1.5392e-05,-0.0752
-1.5388e-05,0.044
-1.5384e-05,0.0288
-1.5380e-05,-0.0736
-1.5376e-05,0.0536
-1.5372e-05,0.0176
-1.5368e-05,-0.072
-1.5364e-05,0.0632
-1.5360e-05,0.0064
-1.5356e-05,-0.0656
-1.5352e-05,0.0672
-1.5348e-05,-0.0056
-1.5344e-05,-0.0568
-1.5340e-05,0.0712
-1.5336e-05,-0.0152
-1.5332e-05,-0.052
-1.5328e-05,0.0776
-1.5324e-05,-0.0272
-1.5320e-05,-0.0424
-1.5316e-05,0.0776
-1.5312e-05,-0.0368
-1.5308e-05,-0.036
-1.5304e-05,0.076
-1.5300e-05,-0.0464
-1.5296e-05,-0.0232
-1.5292e-05,0.0728
-1.5288e-05,-0.0512
-1.5284e-05,-0.0128
-1.5280e-05,0.0696
-1.5276e-05,-0.0616
-1.5272e-05,-0.0024
-1.5268e-05,0.0664
-1.5264e-05,-0.0688
-1.5260e-05,0.0104
-1.5256e-05,0.0592
-1.5252e-05,-0.0696
-1.5248e-05,0.0208
-1.5244e-05,0.0528
-1.5240e-05,-0.0736
-1.5236e-05,0.0352
-1.5232e-05,0.0376
-1.5228e-05,-0.076
-1.5224e-05,0.0408
-1.5220e-05,0.0288
-1.5216e-05,-0.0728
-1.5212e-05,0.0528
-1.5208e-05,0.0184
-1.5204e-05,-0.0688
-1.5200e-05,0.06
-1.5196e-05,0.0112
-1.5192e-05,-0.0656
-1.5188e-05,0.068
-1.5184e-05,-0.004
-1.5180e-05,-0.0624
-1.5176e-05,0.072
-1.5172e-05,-0.012
-1.5168e-05,-0.0536
-1.5164e-05,0.0776
-1.5160e-05,-0.0248
-1.5156e-05,-0.0456
-1.5152e-05,0.0768
-1.5148e-05,-0.0376
-1.5144e-05,-0.036
-1.5140e-05,0.0736
-1.5136e-05,-0.0416
-1.5132e-05,-0.0224
-1.5128e-05,0.0768
-1.5124e-05,-0.052
-1.5120e-05,-0.0184
-1.5116e-05,0.0688
-1.5112e-05,-0.0608
-1.5108e-05,-0.0024
-1.5104e-05,0.0672
-1.5100e-05,-0.0672
-1.5096e-05,0.0088
-1.5092e-05,0.0576
-1.5088e-05,-0.0704
-1.5084e-05,0.0216
-1.5080e-05,0.0496
-1.5076e-05,-0.0736
-1.5072e-05,0.0312
-1.5068e-05,0.0416
-1.5064e-05,-0.0776
-1.5060e-05,0.0408
-1.5056e-05,0.0344
-1.5052e-05,-0.0744
-1.5048e-05,0.0512
-1.5044e-05,0.0184
-1.5040e-05,-0.072
-1.5036e-05,0.06
-1.5032e-05,0.0104
-1.5028e-05,-0.0672
-1.5024e-05,0.0656
-1.5020e-05,-0.0008
-1.5016e-05,-0.06
-1.5012e-05,0.0688
-1.5008e-05,-0.0104
-1.5004e-05,-0.0568
-1.5000e-05,0.0744
-1.4996e-05,-0.0232
-1.4992e-05,-0.044
-1.4988e-05,0.076
-1.4984e-05,-0.0296
-1.4980e-05,-0.0328
-1.4976e-05,0.0768
-1.4972e-05,-0.0448
-1.4968e-05,-0.0272
-1.4964e-05,0.0752
-1.4960e-05,-0.0528
-1.4956e-05,-0.016
-1.4952e-05,0.0704
-1.4948e-05,-0.06
-1.4944e-05,-0.0048
-1.4940e-05,0.0656
-1.4936e-05,-0.0656
-1.4932e-05,0.0048
-1.4928e-05,0.06
-1.4924e-05,-0.0704
-1.4920e-05,0.016
-1.4916e-05,0.052
-1.4912e-05,-0.0712
-1.4908e-05,0.0296
-1.4904e-05,0.0464
-1.4900e-05,-0.076
-1.4896e-05,0.0392
-1.4892e-05,0.0344
-1.4888e-05,-0.0752
-1.4884e-05,0.0528
-1.4880e-05,0.0248
-1.4876e-05,-0.0728
-1.4872e-05,0.0592
-1.4868e-05,0.0104
-1.4864e-05,-0.068
-1.4860e-05,0.064
-1.4856e-05,0.0008
-1.4852e-05,-0.0632
-1.4848e-05,0.0688
-1.4844e-05,-0.0104
-1.4840e-05,-0.0568
-1.4836e-05,0.0768
-1.4832e-05,-0.0224
-1.4828e-05,-0.0472
-1.4824e-05,0.0752
-1.4820e-05,-0.032
-1.4816e-05,-0.0392
-1.4812e-05,0.0768
-1.4808e-05,-0.0416
-1.4804e-05,-0.0296
-1.4800e-05,0.0768
-1.4796e-05,-0.0512
-1.4792e-05,-0.0136
-1.4788e-05,0.0752
-1.4784e-05,-0.0608
-1.4780e-05,-0.004
-1.4776e-05,0.0696
-1.4772e-05,-0.0616
-1.4768e-05,0.0024
-1.4764e-05,0.0616
-1.4760e-05,-0.0688
-1.4756e-05,0.016
-1.4752e-05,0.0536
-1.4748e-05,-0.0736
-1.4744e-05,0.0248
-1.4740e-05,0.0456
-1.4736e-05,-0.0736
-1.4732e-05,0.0376
-1.4728e-05,0.0352
-1.4724e-05,-0.076
-1.4720e-05,0.0496
-1.4716e-05,0.024
-1.4712e-05,-0.0728
-1.4708e-05,0.056
-1.4704e-05,0.0136
-1.4700e-05,-0.0696
-1.4696e-05,0.0648
-1.4692e-05,0.0032
-1.4688e-05,-0.064
-1.4684e-05,0.0672
-1.4680e-05,-0.0096
-1.4676e-05,-0.056
-1.4672e-05,0.072
-1.4668e-05,-0.0208
-1.4664e-05,-0.0496
-1.4660e-05,0.0768
-1.4656e-05,-0.0328
-1.4652e-05,-0.0384
-1.4648e-05,0.0776
-1.4644e-05,-0.0408
-1.4640e-05,-0.0312
-1.4636e-05,0.0736
-1.4632e-05,-0.0504
-1.4628e-05,-0.0192
-1.4624e-05,0.0712
-1.4620e-05,-0.056
-1.4616e-05,-0.008
-1.4612e-05,0.0696
-1.4608e-05,-0.0616
-1.4604e-05,0.0032
-1.4600e-05,0.0624
-1.4596e-05,-0.0656
-1.4592e-05,0.016
-1.4588e-05,0.0584
-1.4584e-05,-0.0712
-1.4580e-05,0.0272
-1.4576e-05,0.0496
-1.4572e-05,-0.0744
-1.4568e-05,0.0376
-1.4564e-05,0.0352
-1.4560e-05,-0.0752
-1.4556e-05,0.0416
-1.4552e-05,0.0272
-1.4548e-05,-0.0696
-1.4544e-05,0.0552
-1.4540e-05,0.0144
-1.4536e-05,-0.0704
-1.4532e-05,0.0632
-1.4528e-05,0.0048
-1.4524e-05,-0.0664
-1.4520e-05,0.0688
-1.4516e-05,-0.0088
-1.4512e-05,-0.056
-1.4508e-05,0.0728
-1.4504e-05,-0.016
-1.4500e-05,-0.0496
-1.4496e-05,0.0736
-1.4492e-05,-0.0288
-1.4488e-05,-0.04
-1.4484e-05,0.0752
-1.4480e-05,-0.0376
-1.4476e-05,-0.028
-1.4472e-05,0.0728
-1.4468e-05,-0.048
-1.4464e-05,-0.0224
-1.4460e-05,0.0736
-1.4456e-05,-0.056
-1.4452e-05,-0.008
-1.4448e-05,0.0672
-1.4444e-05,-0.0624
-1.4440e-05,0.0008
-1.4436e-05,0.0632
-1.4432e-05,-0.068
-1.4428e-05,0.012
-1.4424e-05,0.0568
-1.4420e-05,-0.0728
-1.4416e-05,0.0264
-1.4412e-05,0.0456
-1.4408e-05,-0.0736
-1.4404e-05,0.0328
-1.4400e-05,0.0384
-1.4396e-05,-0.0728
-1.4392e-05,0.0464
-1.4388e-05,0.0288
-1.4384e-05,-0.0736
-1.4380e-05,0.0544
-1.4376e-05,0.0168
-1.4372e-05,-0.0688
-1.4368e-05,0.0624
-1.4364e-05,0.0088
-1.4360e-05,-0.0648
-1.4356e-05,0.0648
-1.4352e-05,-0.0072
-1.4348e-05,-0.0584
-1.4344e-05,0.0712
-1.4340e-05,-0.0176
-1.4336e-05,-0.0536
-1.4332e-05,0.0696
-1.4328e-05,-0.0296
-1.4324e-05,-0.044
-1.4320e-05,0.0752
-1.4316e-05,-0.0352
-1.4312e-05,-0.032
-1.4308e-05,0.0784
-1.4304e-05,-0.0488
-1.4300e-05,-0.0224
-1.4296e-05,0.0728
-1.4292e-05,-0.0552
-1.4288e-05,-0.0096
-1.4284e-05,0.0712
-1.4280e-05,-0.064
-1.4276e-05,0.0008
-1.4272e-05,0.0648
-1.4268e-05,-0.0656
-1.4264e-05,0.0112
-1.4260e-05,0.0576
-1.4256e-05,-0.0696
-1.4252e-05,0.0208
-1.4248e-05,0.048
-1.4244e-05,-0.0736
-1.4240e-05,0.032
-1.4236e-05,0.0408
-1.4232e-05,-0.0728
-1.4228e-05,0.0448
-1.4224e-05,0.0312
-1.4220e-05,-0.0712
-1.4216e-05,0.0496
-1.4212e-05,0.02
-1.4208e-05,-0.072
-1.4204e-05,0.06
-1.4200e-05,0.0064
-1.4196e-05,-0.0656
-1.4192e-05,0.068
-1.4188e-05,-0.0032
-1.4184e-05,-0.064
-1.4180e-05,0.0712
-1.4176e-05,-0.012
-1.4172e-05,-0.0528
-1.4168e-05,0.0736
-1.4164e-05,-0.0256
-1.4160e-05,-0.0448
-1.4156e-05,0.0792
-1.4152e-05,-0.0376
-1.4148e-05,-0.0352
-1.4144e-05,0.0736
-1.4140e-05,-0.0456
-1.4136e-05,-0.0272
-1.4132e-05,0.0736
-1.4128e-05,-0.0512
-1.4124e-05,-0.0128
-1.4120e-05,0.0728
-1.4116e-05,-0.06
-1.4112e-05,-0.0008
-1.4108e-05,0.0624
-1.4104e-05,-0.0664
-1.4100e-05,0.0096
-1.4096e-05,0.06
-1.4092e-05,-0.0696
-1.4088e-05,0.0208
-1.4084e-05,0.0504
-1.4080e-05,-0.0728
-1.4076e-05,0.0312
-1.4072e-05,0.0416
-1.4068e-05,-0.0744
-1.4064e-05,0.04
-1.4060e-05,0.0328
-1.4056e-05,-0.076
-1.4052e-05,0.052
-1.4048e-05,0.0216
-1.4044e-05,-0.0696
-1.4040e-05,0.0576
-1.4036e-05,0.0104
-1.4032e-05,-0.0656
-1.4028e-05,0.064
-1.4024e-05,0.0008
-1.4020e-05,-0.0608
-1.4016e-05,0.0696
-1.4012e-05,-0.0128
-1.4008e-05,-0.0528
-1.4004e-05,0.0752
-1.4000e-05,-0.0232
-1.3996e-05,-0.044
-1.3992e-05,0.0768
-1.3988e-05,-0.0328
-1.3984e-05,-0.0376
-1.3980e-05,0.0768
-1.3976e-05,-0.0456
-1.3972e-05,-0.0272
-1.3968e-05,0.076
-1.3964e-05,-0.0488
-1.3960e-05,-0.0144
-1.3956e-05,0.072
-1.3952e-05,-0.06
-1.3948e-05,-0.0024
-1.3944e-05,0.064
-1.3940e-05,-0.0664
-1.3936e-05,0.0072
-1.3932e-05,0.06
-1.3928e-05,-0.0696
-1.3924e-05,0.0176
-1.3920e-05,0.0536
-1.3916e-05,-0.0712
-1.3912e-05,0.028
-1.3908e-05,0.0448
-1.3904e-05,-0.0736
-1.3900e-05,0.0416
-1.3896e-05,0.0328
-1.3892e-05,-0.0752
-1.3888e-05,0.0504
-1.3884e-05,0.0264
-1.3880e-05,-0.0728
-1.3876e-05,0.056
-1.3872e-05,0.0144
-1.3868e-05,-0.068
-1.3864e-05,0.0624
-1.3860e-05,-0.0016
-1.3856e-05,-0.0616
-1.3852e-05,0.0688
-1.3848e-05,-0.0112
-1.3844e-05,-0.0568
-1.3840e-05,0.072
-1.3836e-05,-0.0232
-1.3832e-05,-0.0472
-1.3828e-05,0.0768
-1.3824e-05,-0.0312
-1.3820e-05,-0.0368
-1.3816e-05,0.0768
-1.3812e-05,-0.0432
-1.3808e-05,-0.028
-1.3804e-05,0.0728
-1.3800e-05,-0.0504
-1.3796e-05,-0.0176
-1.3792e-05,0.0704
-1.3788e-05,-0.0592
-1.3784e-05,-0.0056
-1.3780e-05,0.0704
-1.3776e-05,-0.0656
-1.3772e-05,0.0048
-1.3768e-05,0.0616
-1.3764e-05,-0.0672
-1.3760e-05,0.0192
-1.3756e-05,0.052
-1.3752e-05,-0.0712
-1.3748e-05,0.0296
-1.3744e-05,0.0448
-1.3740e-05,-0.0768
-1.3736e-05,0.0376
-1.3732e-05,0.0328
-1.3728e-05,-0.0712
-1.3724e-05,0.048
-1.3720e-05,0.0256
-1.3716e-05,-0.072
-1.3712e-05,0.056
-1.3708e-05,0.0128
-1.3704e-05,-0.0712
-1.3700e-05,0.0592
-1.3696e-05,0.0032
-1.3692e-05,-0.0624
-1.3688e-05,0.0688
-1.3684e-05,-0.0072
-1.3680e-05,-0.0568
-1.3676e-05,0.0736
-1.3672e-05,-0.0176
-1.3668e-05,-0.0496
-1.3664e-05,0.0744
-1.3660e-05,-0.0328
-1.3656e-05,-0.0408
-1.3652e-05,0.076
-1.3648e-05,-0.0432
-1.3644e-05,-0.0296
-1.3640e-05,0.0744
-1.3636e-05,-0.0488
-1.3632e-05,-0.02
-1.3628e-05,0.072
-1.3624e-05,-0.0568
-1.3620e-05,-0.0072
-1.3616e-05,0.0672
-1.3612e-05,-0.0648
-1.3608e-05,0.0056
-1.3604e-05,0.0624
-1.3600e-05,-0.0696
-1.3596e-05,0.0184
-1.3592e-05,0.0544
-1.3588e-05,-0.0736
-1.3584e-05,0.028
-1.3580e-05,0.0448
-1.3576e-05,-0.0736
-1.3572e-05,0.0368
-1.3568e-05,0.0368
-1.3564e-05,-0.0736
-1.3560e-05,0.0472
-1.3556e-05,0.0264
-1.3552e-05,-0.076
-1.3548e-05,0.0544
-1.3544e-05,0.0144
-1.3540e-05,-0.0664
-1.3536e-05,0.0624
-1.3532e-05,0.0032
-1.3528e-05,-0.0664
-1.3524e-05,0.0696
-1.3520e-05,-0.0088
-1.3516e-05,-0.0584
-1.3512e-05,0.0712
-1.3508e-05,-0.0176
-1.3504e-05,-0.052
-1.3500e-05,0.0776
-1.3496e-05,-0.0296
-1.3492e-05,-0.0416
-1.3488e-05,0.0752
-1.3484e-05,-0.0384
-1.3480e-05,-0.0304
-1.3476e-05,0.0776
-1.3472e-05,-0.0504
-1.3468e-05,-0.0176
-1.3464e-05,0.0736
-1.3460e-05,-0.0568
-1.3456e-05,-0.0072
-1.3452e-05,0.0664
-1.3448e-05,-0.0624
-1.3444e-05,0.0016
-1.3440e-05,0.0632
-1.3436e-05,-0.0664
-1.3432e-05,0.0144
-1.3428e-05,0.056
-1.3424e-05,-0.072
-1.3420e-05,0.0272
-1.3416e-05,0.0472
-1.3412e-05,-0.0744
-1.3408e-05,0.0376
-1.3404e-05,0.0384
-1.3400e-05,-0.076
-1.3396e-05,0.044
-1.3392e-05,0.028
-1.3388e-05,-0.0736
-1.3384e-05,0.0512
-1.3380e-05,0.0208
-1.3376e-05,-0.0696
-1.3372e-05,0.0608
-1.3368e-05,0.0048
-1.3364e-05,-0.0664
-1.3360e-05,0.0688
-1.3356e-05,-0.004
-1.3352e-05,-0.0584
-1.3348e-05,0.0712
-1.3344e-05,-0.016
-1.3340e-05,-0.0528
-1.3336e-05,0.0728
-1.3332e-05,-0.0256
-1.3328e-05,-0.0448
-1.3324e-05,0.0768
-1.3320e-05,-0.04
-1.3316e-05,-0.0272
-1.3312e-05,0.076
-1.3308e-05,-0.0448
-1.3304e-05,-0.024
-1.3300e-05,0.0736
-1.3296e-05,-0.052
-1.3292e-05,-0.012
-1.3288e-05,0.0672
-1.3284e-05,-0.0616
-1.3280e-05,0
-1.3276e-05,0.0624
-1.3272e-05,-0.0672
-1.3268e-05,0.0072
-1.3264e-05,0.0568
-1.3260e-05,-0.0736
-1.3256e-05,0.0232
-1.3252e-05,0.0504
-1.3248e-05,-0.076
-1.3244e-05,0.0368
-1.3240e-05,0.0408
-1.3236e-05,-0.0752
-1.3232e-05,0.044
-1.3228e-05,0.028
-1.3224e-05,-0.0744
-1.3220e-05,0.052
-1.3216e-05,0.0184
-1.3212e-05,-0.072
-1.3208e-05,0.0608
-1.3204e-05,0.0064
-1.3200e-05,-0.0664
-1.3196e-05,0.0688
-1.3192e-05,-0.0032
-1.3188e-05,-0.0632
-1.3184e-05,0.072
-1.3180e-05,-0.0128
-1.3176e-05,-0.052
-1.3172e-05,0.0736
-1.3168e-05,-0.0256
-1.3164e-05,-0.0456
-1.3160e-05,0.08
-1.3156e-05,-0.036
-1.3152e-05,-0.032
-1.3148e-05,0.0728
-1.3144e-05,-0.0456
-1.3140e-05,-0.024
-1.3136e-05,0.0728
-1.3132e-05,-0.0536
-1.3128e-05,-0.0112
-1.3124e-05,0.0688
-1.3120e-05,-0.0608
-1.3116e-05,-0.0024
-1.3112e-05,0.064
-1.3108e-05,-0.0672
-1.3104e-05,0.0088
-1.3100e-05,0.0616
-1.3096e-05,-0.0736
-1.3092e-05,0.024
-1.3088e-05,0.0512
-1.3084e-05,-0.0744
-1.3080e-05,0.0328
-1.3076e-05,0.0392
-1.3072e-05,-0.0768
-1.3068e-05,0.0392
-1.3064e-05,0.0312
-1.3060e-05,-0.072
-1.3056e-05,0.052
-1.3052e-05,0.0208
-1.3048e-05,-0.0712
-1.3044e-05,0.0608
-1.3040e-05,0.0096
-1.3036e-05,-0.068
-1.3032e-05,0.068
-1.3028e-05,-0.0008
-1.3024e-05,-0.0592
-1.3020e-05,0.0688
-1.3016e-05,-0.0152
-1.3012e-05,-0.0536
-1.3008e-05,0.0736
-1.3004e-05,-0.0264
-1.3000e-05,-0.0432
-1.2996e-05,0.0744
-1.2992e-05,-0.036
-1.2988e-05,-0.0344
-1.2984e-05,0.0784
-1.2980e-05,-0.0448
-1.2976e-05,-0.0264
-1.2972e-05,0.0744
-1.2968e-05,-0.052
-1.2964e-05,-0.0144
-1.2960e-05,0.0688
-1.2956e-05,-0.0592
-1.2952e-05,-0.0016
-1.2948e-05,0.0664
-1.2944e-05,-0.0688
-1.2940e-05,0.0064
-1.2936e-05,0.0632
-1.2932e-05,-0.0704
-1.2928e-05,0.0232
-1.2924e-05,0.0488
-1.2920e-05,-0.0696
-1.2916e-05,0.0288
-1.2912e-05,0.0432
-1.2908e-05,-0.076
-1.2904e-05,0.044
-1.2900e-05,0.0304
-1.2896e-05,-0.0736
-1.2892e-05,0.052
-1.2888e-05,0.0184
-1.2884e-05,-0.0728
-1.2880e-05,0.0584
-1.2876e-05,0.0096
-1.2872e-05,-0.0712
-1.2868e-05,0.0672
-1.2864e-05,0.0008
-1.2860e-05,-0.0592
-1.2856e-05,0.0696
-1.2852e-05,-0.0096
-1.2848e-05,-0.0576
-1.2844e-05,0.0736
-1.2840e-05,-0.024
-1.2836e-05,-0.0456
-1.2832e-05,0.0776
-1.2828e-05,-0.0352
-1.2824e-05,-0.036
-1.2820e-05,0.0768
-1.2816e-05,-0.0408
-1.2812e-05,-0.0288
-1.2808e-05,0.0744
-1.2804e-05,-0.0528
-1.2800e-05,-0.0168
-1.2796e-05,0.0728
-1.2792e-05,-0.0584
-1.2788e-05,-0.0048
-1.2784e-05,0.068
-1.2780e-05,-0.0632
-1.2776e-05,0.0048
-1.2772e-05,0.0592
-1.2768e-05,-0.0688
-1.2764e-05,0.0168
-1.2760e-05,0.0528
-1.2756e-05,-0.0696
-1.2752e-05,0.028
-1.2748e-05,0.0432
-1.2744e-05,-0.076
-1.2740e-05,0.0416
-1.2736e-05,0.0336
-1.2732e-05,-0.0744
-1.2728e-05,0.048
-1.2724e-05,0.0232
-1.2720e-05,-0.0728
-1.2716e-05,0.0544
-1.2712e-05,0.0136
-1.2708e-05,-0.0688
-1.2704e-05,0.0632
-1.2700e-05,0.0008
-1.2696e-05,-0.0648
-1.2692e-05,0.068
-1.2688e-05,-0.0096
-1.2684e-05,-0.056
-1.2680e-05,0.0736
-1.2676e-05,-0.0224
-1.2672e-05,-0.048
-1.2668e-05,0.0768
-1.2664e-05,-0.0264
-1.2660e-05,-0.04
-1.2656e-05,0.076
-1.2652e-05,-0.0408
-1.2648e-05,-0.0304
-1.2644e-05,0.0784
-1.2640e-05,-0.0512
-1.2636e-05,-0.016
-1.2632e-05,0.072
-1.2628e-05,-0.0584
-1.2624e-05,-0.008
-1.2620e-05,0.0648
-1.2616e-05,-0.0688
-1.2612e-05,0.004
-1.2608e-05,0.0608
-1.2604e-05,-0.0672
-1.2600e-05,0.0136
-1.2596e-05,0.0552
-1.2592e-05,-0.0736
-1.2588e-05,0.0248
-1.2584e-05,0.0456
-1.2580e-05,-0.0744
-1.2576e-05,0.04
-1.2572e-05,0.0344
-1.2568e-05,-0.0712
-1.2564e-05,0.0472
-1.2560e-05,0.0264
-1.2556e-05,-0.0752
-1.2552e-05,0.0568
-1.2548e-05,0.0152
-1.2544e-05,-0.0704
-1.2540e-05,0.064
-1.2536e-05,0.004
-1.2532e-05,-0.0632
-1.2528e-05,0.0688
-1.2524e-05,-0.0104
-1.2520e-05,-0.0592
-1.2516e-05,0.0712
-1.2512e-05,-0.0224
-1.2508e-05,-0.0464
-1.2504e-05,0.0776
-1.2500e-05,-0.0304
-1.2496e-05,-0.0424
-1.2492e-05,0.0784
-1.2488e-05,-0.0432
-1.2484e-05,-0.0288
-1.2480e-05,0.0736
-1.2476e-05,-0.0528
-1.2472e-05,-0.02
-1.2468e-05,0.0712
-1.2464e-05,-0.0568
-1.2460e-05,-0.0064
-1.2456e-05,0.0672
-1.2452e-05,-0.0648
-1.2448e-05,0.0032
-1.2444e-05,0.0624
-1.2440e-05,-0.0704
-1.2436e-05,0.0152
-1.2432e-05,0.0584
-1.2428e-05,-0.0744
-1.2424e-05,0.0256
-1.2420e-05,0.0496
-1.2416e-05,-0.0784
-1.2412e-05,0.0384
-1.2408e-05,0.0392
-1.2404e-05,-0.0776
-1.2400e-05,0.048
-1.2396e-05,0.0248
-1.2392e-05,-0.0704
-1.2388e-05,0.0552
-1.2384e-05,0.0136
-1.2380e-05,-0.0696
-1.2376e-05,0.0632
-1.2372e-05,0.004
-1.2368e-05,-0.068
-1.2364e-05,0.0664
-1.2360e-05,-0.0056
-1.2356e-05,-0.0576
-1.2352e-05,0.0712
-1.2348e-05,-0.0208
-1.2344e-05,-0.0504
-1.2340e-05,0.0728
-1.2336e-05,-0.0304
-1.2332e-05,-0.0416
-1.2328e-05,0.0776
-1.2324e-05,-0.0384
-1.2320e-05,-0.0296
-1.2316e-05,0.0784
-1.2312e-05,-0.0464
-1.2308e-05,-0.02
-1.2304e-05,0.076
-1.2300e-05,-0.056
-1.2296e-05,-0.0104
-1.2292e-05,0.0712
-1.2288e-05,-0.0608
-1.2284e-05,0.004
-1.2280e-05,0.0624
-1.2276e-05,-0.0656
-1.2272e-05,0.0152
-1.2268e-05,0.056
-1.2264e-05,-0.0728
-1.2260e-05,0.024
-1.2256e-05,0.0488
-1.2252e-05,-0.076
-1.2248e-05,0.0336
-1.2244e-05,0.04
-1.2240e-05,-0.076
-1.2236e-05,0.0448
-1.2232e-05,0.0288
-1.2228e-05,-0.0736
-1.2224e-05,0.0552
-1.2220e-05,0.016
-1.2216e-05,-0.0696
-1.2212e-05,0.0632
-1.2208e-05,0.008
-1.2204e-05,-0.0672
-1.2200e-05,0.068
-1.2196e-05,-0.0048
-1.2192e-05,-0.0616
-1.2188e-05,0.0704
-1.2184e-05,-0.0144
-1.2180e-05,-0.052
-1.2176e-05,0.0744
-1.2172e-05,-0.0288
-1.2168e-05,-0.0456
-1.2164e-05,0.0752
-1.2160e-05,-0.0384
-1.2156e-05,-0.0312
-1.2152e-05,0.0736
-1.2148e-05,-0.048
-1.2144e-05,-0.0224
-1.2140e-05,0.0736
-1.2136e-05,-0.0568
-1.2132e-05,-0.0128
-1.2128e-05,0.0752
-1.2124e-05,-0.064
-1.2120e-05,0
-1.2116e-05,0.0648
-1.2112e-05,-0.0664
-1.2108e-05,0.0112
-1.2104e-05,0.056
-1.2100e-05,-0.072
-1.2096e-05,0.0232
-1.2092e-05,0.0504
-1.2088e-05,-0.0712
-1.2084e-05,0.0328
-1.2080e-05,0.0432
-1.2076e-05,-0.0728
-1.2072e-05,0.044
-1.2068e-05,0.0312
-1.2064e-05,-0.0744
-1.2060e-05,0.0544
-1.2056e-05,0.02
-1.2052e-05,-0.0728
-1.2048e-05,0.0592
-1.2044e-05,0.0064
-1.2040e-05,-0.0648
-1.2036e-05,0.0648
-1.2032e-05,-0.004
-1.2028e-05,-0.0608
-1.2024e-05,0.0704
-1.2020e-05,-0.012
-1.2016e-05,-0.052
-1.2012e-05,0.0744
-1.2008e-05,-0.0256
-1.2004e-05,-0.044
-1.2000e-05,0.0792
-1.1996e-05,-0.0392
-1.1992e-05,-0.0304
-1.1988e-05,0.0784
-1.1984e-05,-0.0464
-1.1980e-05,-0.0224
-1.1976e-05,0.0704
-1.1972e-05,-0.0528
-1.1968e-05,-0.0128
-1.1964e-05,0.0712
-1.1960e-05,-0.0608
-1.1956e-05,-0.0032
-1.1952e-05,0.0656
-1.1948e-05,-0.0672
-1.1944e-05,0.012
-1.1940e-05,0.0592
-1.1936e-05,-0.0688
-1.1932e-05,0.02
-1.1928e-05,0.0496
-1.1924e-05,-0.0736
-1.1920e-05,0.036
-1.1916e-05,0.0384
-1.1912e-05,-0.0744
-1.1908e-05,0.0408
-1.1904e-05,0.032
-1.1900e-05,-0.0744
-1.1896e-05,0.0512
-1.1892e-05,0.0184
-1.1888e-05,-0.0704
-1.1884e-05,0.0576
-1.1880e-05,0.0096
-1.1876e-05,-0.0672
-1.1872e-05,0.0656
-1.1868e-05,0
-1.1864e-05,-0.0616
-1.1860e-05,0.072
-1.1856e-05,-0.0128
-1.1852e-05,-0.0536
-1.1848e-05,0.072
-1.1844e-05,-0.0248
-1.1840e-05,-0.0464
-1.1836e-05,0.076
-1.1832e-05,-0.0336
-1.1828e-05,-0.036
-1.1824e-05,0.0752
-1.1820e-05,-0.0456
-1.1816e-05,-0.0216
-1.1812e-05,0.072
-1.1808e-05,-0.0536
-1.1804e-05,-0.0128
-1.1800e-05,0.0704
-1.1796e-05,-0.0616
-1.1792e-05,-0.0016
-1.1788e-05,0.0656
-1.1784e-05,-0.0664
-1.1780e-05,0.0088
-1.1776e-05,0.0592
-1.1772e-05,-0.072
-1.1768e-05,0.0184
-1.1764e-05,0.0512
-1.1760e-05,-0.072
-1.1756e-05,0.0296
-1.1752e-05,0.0432
-1.1748e-05,-0.0696
-1.1744e-05,0.0384
-1.1740e-05,0.0336
-1.1736e-05,-0.072
-1.1732e-05,0.048
-1.1728e-05,0.0216
-1.1724e-05,-0.072
-1.1720e-05,0.0584
-1.1716e-05,0.012
-1.1712e-05,-0.0688
-1.1708e-05,0.0648
-1.1704e-05,0.0008
-1.1700e-05,-0.0616
-1.1696e-05,0.068
-1.1692e-05,-0.0104
-1.1688e-05,-0.0552
-1.1684e-05,0.0728
-1.1680e-05,-0.0232
-1.1676e-05,-0.0456
-1.1672e-05,0.0768
-1.1668e-05,-0.0344
-1.1664e-05,-0.0416
-1.1660e-05,0.0768
-1.1656e-05,-0.0408
-1.1652e-05,-0.028
-1.1648e-05,0.076
-1.1644e-05,-0.0528
-1.1640e-05,-0.0128
-1.1636e-05,0.0696
-1.1632e-05,-0.0608
-1.1628e-05,-0.0048
-1.1624e-05,0.068
-1.1620e-05,-0.0672
-1.1616e-05,0.0072
-1.1612e-05,0.0616
-1.1608e-05,-0.072
-1.1604e-05,0.0192
-1.1600e-05,0.052
-1.1596e-05,-0.0712
-1.1592e-05,0.0304
-1.1588e-05,0.0472
-1.1584e-05,-0.076
-1.1580e-05,0.0384
-1.1576e-05,0.0344
-1.1572e-05,-0.0736
-1.1568e-05,0.048
-1.1564e-05,0.0208
-1.1560e-05,-0.072
-1.1556e-05,0.0568
-1.1552e-05,0.0136
-1.1548e-05,-0.0696
-1.1544e-05,0.0656
-1.1540e-05,-0.0016
-1.1536e-05,-0.0608
-1.1532e-05,0.072
-1.1528e-05,-0.008
-1.1524e-05,-0.0552
-1.1520e-05,0.0704
-1.1516e-05,-0.0176
-1.1512e-05,-0.0472
-1.1508e-05,0.0744
-1.1504e-05,-0.0336
-1.1500e-05,-0.0416
-1.1496e-05,0.0776
-1.1492e-05,-0.0416
-1.1488e-05,-0.0312
-1.1484e-05,0.0776
-1.1480e-05,-0.0464
-1.1476e-05,-0.0168
-1.1472e-05,0.0744
-1.1468e-05,-0.0592
-1.1464e-05,-0.004
-1.1460e-05,0.0664
-1.1456e-05,-0.0632
-1.1452e-05,0.004
-1.1448e-05,0.0608
-1.1444e-05,-0.068
-1.1440e-05,0.0168
-1.1436e-05,0.0528
-1.1432e-05,-0.0728
-1.1428e-05,0.0256
-1.1424e-05,0.0464
-1.1420e-05,-0.0744
-1.1416e-05,0.0384
-1.1412e-05,0.0384
-1.1408e-05,-0.0744
-1.1404e-05,0.048
-1.1400e-05,0.0264
-1.1396e-05,-0.0736
-1.1392e-05,0.0552
-1.1388e-05,0.0128
-1.1384e-05,-0.0704
-1.1380e-05,0.0632
-1.1376e-05,0.0032
-1.1372e-05,-0.0608
-1.1368e-05,0.0728
-1.1364e-05,-0.0056
-1.1360e-05,-0.0568
-1.1356e-05,0.0752
-1.1352e-05,-0.0184
-1.1348e-05,-0.0488
-1.1344e-05,0.0752
-1.1340e-05,-0.0328
-1.1336e-05,-0.0424
-1.1332e-05,0.0752
-1.1328e-05,-0.0416
-1.1324e-05,-0.0328
-1.1320e-05,0.0728
-1.1316e-05,-0.0504
-1.1312e-05,-0.0192
-1.1308e-05,0.0704
-1.1304e-05,-0.0576
-1.1300e-05,-0.0096
-1.1296e-05,0.068
-1.1292e-05,-0.0632
-1.1288e-05,0.0032
-1.1284e-05,0.0624
-1.1280e-05,-0.068
-1.1276e-05,0.016
-1.1272e-05,0.056
-1.1268e-05,-0.0704
-1.1264e-05,0.0264
-1.1260e-05,0.0488
-1.1256e-05,-0.0736
-1.1252e-05,0.0376
-1.1248e-05,0.0376
-1.1244e-05,-0.0744
-1.1240e-05,0.0448
-1.1236e-05,0.0232
-1.1232e-05,-0.0696
-1.1228e-05,0.0544
-1.1224e-05,0.0176
-1.1220e-05,-0.0696
-1.1216e-05,0.0632
-1.1212e-05,0.0056
-1.1208e-05,-0.064
-1.1204e-05,0.0688
-1.1200e-05,-0.0064
-1.1196e-05,-0.0608
-1.1192e-05,0.0736
-1.1188e-05,-0.0168
-1.1184e-05,-0.0504
-1.1180e-05,0.0752
-1.1176e-05,-0.028
-1.1172e-05,-0.0432
-1.1168e-05,0.0776
-1.1164e-05,-0.0416
-1.1160e-05,-0.0312
-1.1156e-05,0.0728
-1.1152e-05,-0.048
-1.1148e-05,-0.0224
-1.1144e-05,0.0736
-1.1140e-05,-0.0576
-1.1136e-05,-0.008
-1.1132e-05,0.0704
-1.1128e-05,-0.0632
-1.1124e-05,0
-1.1120e-05,0.0616
-1.1116e-05,-0.0704
-1.1112e-05,0.0136
-1.1108e-05,0.0528
-1.1104e-05,-0.0712
-1.1100e-05,0.0248
-1.1096e-05,0.048
-1.1092e-05,-0.0728
-1.1088e-05,0.036
-1.1084e-05,0.0368
-1.1080e-05,-0.0744
-1.1076e-05,0.0432
-1.1072e-05,0.0288
-1.1068e-05,-0.072
-1.1064e-05,0.0512
-1.1060e-05,0.0184
-1.1056e-05,-0.0672
-1.1052e-05,0.0584
-1.1048e-05,0.0064
-1.1044e-05,-0.064
-1.1040e-05,0.0672
-1.1036e-05,-0.004
-1.1032e-05,-0.06
-1.1028e-05,0.0704
-1.1024e-05,-0.0144
-1.1020e-05,-0.0488
-1.1016e-05,0.0784
-1.1012e-05,-0.0264
-1.1008e-05,-0.0416
-1.1004e-05,0.0752
-1.1000e-05,-0.0368
-1.0996e-05,-0.0328
-1.0992e-05,0.0752
-1.0988e-05,-0.0448
-1.0984e-05,-0.0224
-1.0980e-05,0.076
-1.0976e-05,-0.0544
-1.0972e-05,-0.012
-1.0968e-05,0.0696
-1.0964e-05,-0.0592
-1.0960e-05,-0.0016
-1.0956e-05,0.064
-1.0952e-05,-0.068
-1.0948e-05,0.0144
-1.0944e-05,0.0568
-1.0940e-05,-0.0712
-1.0936e-05,0.02
-1.0932e-05,0.0496
-1.0928e-05,-0.076
-1.0924e-05,0.0384
-1.0920e-05,0.0376
-1.0916e-05,-0.072
-1.0912e-05,0.0432
-1.0908e-05,0.0288
-1.0904e-05,-0.0736
-1.0900e-05,0.0536
-1.0896e-05,0.02
-1.0892e-05,-0.0696
-1.0888e-05,0.0584
-1.0884e-05,0.008
-1.0880e-05,-0.068
-1.0876e-05,0.0656
-1.0872e-05,-0.0024
-1.0868e-05,-0.0632
-1.0864e-05,0.0712
-1.0860e-05,-0.016
-1.0856e-05,-0.0568
-1.0852e-05,0.0744
-1.0848e-05,-0.0296
-1.0844e-05,-0.0424
-1.0840e-05,0.0752
-1.0836e-05,-0.0352
-1.0832e-05,-0.0328
-1.0828e-05,0.0752
-1.0824e-05,-0.0448
-1.0820e-05,-0.0216
-1.0816e-05,0.0744
-1.0812e-05,-0.0528
-1.0808e-05,-0.0144
-1.0804e-05,0.0688
-1.0800e-05,-0.0624
-1.0796e-05,-0.004
-1.0792e-05,0.0648
-1.0788e-05,-0.0648
-1.0784e-05,0.0088
-1.0780e-05,0.0584
-1.0776e-05,-0.072
-1.0772e-05,0.0192
-1.0768e-05,0.0496
-1.0764e-05,-0.0736
-1.0760e-05,0.032
-1.0756e-05,0.04
-1.0752e-05,-0.0728
-1.0748e-05,0.0384
-1.0744e-05,0.0296
-1.0740e-05,-0.0752
-1.0736e-05,0.0512
-1.0732e-05,0.0208
-1.0728e-05,-0.0696
-1.0724e-05,0.0592
-1.0720e-05,0.0104
-1.0716e-05,-0.0656
-1.0712e-05,0.0624
-1.0708e-05,-0.0024
-1.0704e-05,-0.0592
-1.0700e-05,0.0712
-1.0696e-05,-0.0104
-1.0692e-05,-0.0536
-1.0688e-05,0.0688
-1.0684e-05,-0.024
-1.0680e-05,-0.044
-1.0676e-05,0.076
-1.0672e-05,-0.0344
-1.0668e-05,-0.0336
-1.0664e-05,0.0768
-1.0660e-05,-0.044
-1.0656e-05,-0.0256
-1.0652e-05,0.0768
-1.0648e-05,-0.0528
-1.0644e-05,-0.0176
-1.0640e-05,0.072
-1.0636e-05,-0.0576
-1.0632e-05,-0.004
-1.0628e-05,0.0648
-1.0624e-05,-0.0648
-1.0620e-05,0.0128
-1.0616e-05,0.0568
-1.0612e-05,-0.0752
-1.0608e-05,0.02
-1.0604e-05,0.048
-1.0600e-05,-0.0752
-1.0596e-05,0.0288
-1.0592e-05,0.0424
-1.0588e-05,-0.0736
-1.0584e-05,0.0416
-1.0580e-05,0.0344
-1.0576e-05,-0.0736
-1.0572e-05,0.0512
-1.0568e-05,0.0208
-1.0564e-05,-0.0704
-1.0560e-05,0.0576
-1.0556e-05,0.0136
-1.0552e-05,-0.0664
-1.0548e-05,0.0632
-1.0544e-05,0.0016
-1.0540e-05,-0.0616
-1.0536e-05,0.0696
-1.0532e-05,-0.0096
-1.0528e-05,-0.052
-1.0524e-05,0.0712
-1.0520e-05,-0.0248
-1.0516e-05,-0.0448
-1.0512e-05,0.0768
-1.0508e-05,-0.0304
-1.0504e-05,-0.0376
-1.0500e-05,0.0752
-1.0496e-05,-0.0424
-1.0492e-05,-0.0248
-1.0488e-05,0.0736
-1.0484e-05,-0.0488
-1.0480e-05,-0.0168
-1.0476e-05,0.0736
-1.0472e-05,-0.0584
-1.0468e-05,-0.0056
-1.0464e-05,0.068
-1.0460e-05,-0.0632
-1.0456e-05,0.0088
-1.0452e-05,0.0616
-1.0448e-05,-0.0688
-1.0444e-05,0.0216
-1.0440e-05,0.0512
-1.0436e-05,-0.0696
-1.0432e-05,0.0296
-1.0428e-05,0.0432
-1.0424e-05,-0.0736
-1.0420e-05,0.0392
-1.0416e-05,0.0296
-1.0412e-05,-0.0728
-1.0408e-05,0.0496
-1.0404e-05,0.024
-1.0400e-05,-0.0696
-1.0396e-05,0.056
-1.0392e-05,0.0144
-1.0388e-05,-0.0664
-1.0384e-05,0.064
-1.0380e-05,0.0008
-1.0376e-05,-0.0616
-1.0372e-05,0.0672
-1.0368e-05,-0.0088
-1.0364e-05,-0.0584
-1.0360e-05,0.0744
-1.0356e-05,-0.0216
-1.0352e-05,-0.0496
-1.0348e-05,0.0744
-1.0344e-05,-0.0312
-1.0340e-05,-0.0408
-1.0336e-05,0.0792
-1.0332e-05,-0.0376
-1.0328e-05,-0.0288
-1.0324e-05,0.0728
-1.0320e-05,-0.0504
-1.0316e-05,-0.0152
-1.0312e-05,0.072
-1.0308e-05,-0.0536
-1.0304e-05,-0.0096
-1.0300e-05,0.0688
-1.0296e-05,-0.0632
-1.0292e-05,0.0024
-1.0288e-05,0.0584
-1.0284e-05,-0.068
-1.0280e-05,0.0144
-1.0276e-05,0.0528
-1.0272e-05,-0.072
-1.0268e-05,0.0264
-1.0264e-05,0.0456
-1.0260e-05,-0.0736
-1.0256e-05,0.036
-1.0252e-05,0.0336
-1.0248e-05,-0.0696
-1.0244e-05,0.0448
-1.0240e-05,0.0232
-1.0236e-05,-0.0704
-1.0232e-05,0.0568
-1.0228e-05,0.0144
-1.0224e-05,-0.0656
-1.0220e-05,0.0608
-1.0216e-05,0.0072
-1.0212e-05,-0.0616
-1.0208e-05,0.0656
-1.0204e-05,-0.0072
-1.0200e-05,-0.0584
-1.0196e-05,0.0736
-1.0192e-05,-0.0176
-1.0188e-05,-0.0496
-1.0184e-05,0.072
-1.0180e-05,-0.0272
-1.0176e-05,-0.0384
-1.0172e-05,0.0736
-1.0168e-05,-0.04
-1.0164e-05,-0.0296
-1.0160e-05,0.076
-1.0156e-05,-0.0496
-1.0152e-05,-0.0176
-1.0148e-05,0.0696
-1.0144e-05,-0.056
-1.0140e-05,-0.0112
-1.0136e-05,0.068
-1.0132e-05,-0.0624
-1.0128e-05,0.0024
-1.0124e-05,0.0624
-1.0120e-05,-0.0688
-1.0116e-05,0.0128
-1.0112e-05,0.052
-1.0108e-05,-0.072
-1.0104e-05,0.0248
-1.0100e-05,0.0472
-1.0096e-05,-0.0736
-1.0092e-05,0.0368
-1.0088e-05,0.0352
-1.0084e-05,-0.0736
-1.0080e-05,0.0432
-1.0076e-05,0.0272
-1.0072e-05,-0.0696
-1.0068e-05,0.052
-1.0064e-05,0.0176
-1.0060e-05,-0.068
-1.0056e-05,0.06
-1.0052e-05,0.0048
-1.0048e-05,-0.064
-1.0044e-05,0.0688
-1.0040e-05,-0.0048
-1.0036e-05,-0.0568
-1.0032e-05,0.0736
-1.0028e-05,-0.016
-1.0024e-05,-0.052
-1.0020e-05,0.0728
-1.0016e-05,-0.0248
-1.0012e-05,-0.0408
-1.0008e-05,0.0752
-1.0004e-05,-0.0376
-1.0000e-05,-0.0344
-9.9960e-06,0.0744
-9.9920e-06,-0.0472
-9.9880e-06,-0.0224
-9.9840e-06,0.0736
-9.9800e-06,-0.0552
-9.9760e-06,-0.0104
-9.9720e-06,0.0656
-9.9680e-06,-0.0616
-9.9640e-06,0.0016
-9.9600e-06,0.064
-9.9560e-06,-0.0664
-9.9520e-06,0.0136
-9.9480e-06,0.056
-9.9440e-06,-0.072
-9.9400e-06,0.0256
-9.9360e-06,0.0472
-9.9320e-06,-0.0704
-9.9280e-06,0.0328
-9.9240e-06,0.0368
-9.9200e-06,-0.0744
-9.9160e-06,0.0448
-9.9120e-06,0.0272
-9.9080e-06,-0.076
-9.9040e-06,0.0544
-9.9000e-06,0.0176
-9.8960e-06,-0.068
-9.8920e-06,0.0592
-9.8880e-06,0.008
-9.8840e-06,-0.068
-9.8800e-06,0.0648
-9.8760e-06,-0.0056
-9.8720e-06,-0.0576
-9.8680e-06,0.0712
-9.8640e-06,-0.0144
-9.8600e-06,-0.0504
-9.8560e-06,0.0728
-9.8520e-06,-0.0256
-9.8480e-06,-0.0424
-9.8440e-06,0.0752
-9.8400e-06,-0.0352
-9.8360e-06,-0.0312
-9.8320e-06,0.0744
-9.8280e-06,-0.044
-9.8240e-06,-0.02
-9.8200e-06,0.0712
-9.8160e-06,-0.0536
-9.8120e-06,-0.0136
-9.8080e-06,0.0672
-9.8040e-06,-0.06
-9.8000e-06,-0.0024
-9.7960e-06,0.064
-9.7920e-06,-0.0672
-9.7880e-06,0.0088
-9.7840e-06,0.0576
-9.7800e-06,-0.068
-9.7760e-06,0.0208
-9.7720e-06,0.0512
-9.7680e-06,-0.0728
-9.7640e-06,0.0312
-9.7600e-06,0.0392
-9.7560e-06,-0.0752
-9.7520e-06,0.0408
-9.7480e-06,0.0288
-9.7440e-06,-0.0736
-9.7400e-06,0.052
-9.7360e-06,0.0184
-9.7320e-06,-0.0696
-9.7280e-06,0.06
-9.7240e-06,0.008
-9.7200e-06,-0.0664
-9.7160e-06,0.0648
-9.7120e-06,-0.0056
-9.7080e-06,-0.06
-9.7040e-06,0.0672
-9.7000e-06,-0.0112
-9.6960e-06,-0.052
-9.6920e-06,0.0736
-9.6880e-06,-0.0208
-9.6840e-06,-0.0448
-9.6800e-06,0.0744
-9.6760e-06,-0.036
-9.6720e-06,-0.0352
-9.6680e-06,0.0744
-9.6640e-06,-0.044
-9.6600e-06,-0.024
-9.6560e-06,0.072
-9.6520e-06,-0.0528
-9.6480e-06,-0.0136
-9.6440e-06,0.0704
-9.6400e-06,-0.06
-9.6360e-06,-0.0016
-9.6320e-06,0.064
-9.6280e-06,-0.0672
-9.6240e-06,0.0064
-9.6200e-06,0.0584
-9.6160e-06,-0.0696
-9.6120e-06,0.0192
-9.6080e-06,0.0512
-9.6040e-06,-0.0728
-9.6000e-06,0.0304
-9.5960e-06,0.0424
-9.5920e-06,-0.0776
-9.5880e-06,0.0424
-9.5840e-06,0.0328
-9.5800e-06,-0.0712
-9.5760e-06,0.0512
-9.5720e-06,0.02
-9.5680e-06,-0.072
-9.5640e-06,0.0552
-9.5600e-06,0.0112
-9.5560e-06,-0.0648
-9.5520e-06,0.0616
-9.5480e-06,-0.0032
-9.5440e-06,-0.0608
-9.5400e-06,0.0672
-9.5360e-06,-0.012
-9.5320e-06,-0.0536
-9.5280e-06,0.0736
-9.5240e-06,-0.0232
-9.5200e-06,-0.0448
-9.5160e-06,0.0808
-9.5120e-06,-0.0328
-9.5080e-06,-0.0352
-9.5040e-06,0.0768
-9.5000e-06,-0.04
-9.4960e-06,-0.028
-9.4920e-06,0.0704
-9.4880e-06,-0.052
-9.4840e-06,-0.0152
-9.4800e-06,0.068
-9.4760e-06,-0.0568
-9.4720e-06,-0.0032
-9.4680e-06,0.0648
-9.4640e-06,-0.0648
-9.4600e-06,0.004
-9.4560e-06,0.0592
-9.4520e-06,-0.0712
-9.4480e-06,0.0176
-9.4440e-06,0.0528
-9.4400e-06,-0.0728
-9.4360e-06,0.028
-9.4320e-06,0.0408
-9.4280e-06,-0.0736
-9.4240e-06,0.0376
-9.4200e-06,0.0352
-9.4160e-06,-0.072
-9.4120e-06,0.0464
-9.4080e-06,0.0224
-9.4040e-06,-0.0728
-9.4000e-06,0.056
-9.3960e-06,0.0136
-9.3920e-06,-0.0696
-9.3880e-06,0.0608
-9.3840e-06,0.0024
-9.3800e-06,-0.0624
-9.3760e-06,0.0664
-9.3720e-06,-0.0096
-9.3680e-06,-0.0552
-9.3640e-06,0.0712
-9.3600e-06,-0.0192
-9.3560e-06,-0.0448
-9.3520e-06,0.0712
-9.3480e-06,-0.0312
-9.3440e-06,-0.04
-9.3400e-06,0.0784
-9.3360e-06,-0.04
-9.3320e-06,-0.0256
-9.3280e-06,0.0712
-9.3240e-06,-0.0512
-9.3200e-06,-0.0176
-9.3160e-06,0.0704
-9.3120e-06,-0.0568
-9.3080e-06,-0.0096
-9.3040e-06,0.0664
-9.3000e-06,-0.0656
-9.2960e-06,0.0088
-9.2920e-06,0.06
-9.2880e-06,-0.0672
-9.2840e-06,0.0168
-9.2800e-06,0.052
-9.2760e-06,-0.0712
-9.2720e-06,0.0264
-9.2680e-06,0.0424
-9.2640e-06,-0.0744
-9.2600e-06,0.0368
-9.2560e-06,0.032
-9.2520e-06,-0.0736
-9.2480e-06,0.0448
-9.2440e-06,0.0272
-9.2400e-06,-0.0696
-9.2360e-06,0.056
-9.2320e-06,0.0128
-9.2280e-06,-0.0672
-9.2240e-06,0.0584
-9.2200e-06,0.0048
-9.2160e-06,-0.0648
-9.2120e-06,0.0648
-9.2080e-06,-0.0072
-9.2040e-06,-0.056
-9.2000e-06,0.0736
-9.1960e-06,-0.0184
-9.1920e-06,-0.052
-9.1880e-06,0.0696
-9.1840e-06,-0.0296
-9.1800e-06,-0.0384
-9.1760e-06,0.0768
-9.1720e-06,-0.0368
-9.1680e-06,-0.0272
-9.1640e-06,0.0744
-9.1600e-06,-0.0504
-9.1560e-06,-0.0208
-9.1520e-06,0.0712
-9.1480e-06,-0.0576
-9.1440e-06,-0.008
-9.1400e-06,0.0656
-9.1360e-06,-0.064
-9.1320e-06,0.0024
-9.1280e-06,0.0616
-9.1240e-06,-0.0656
-9.1200e-06,0.0152
-9.1160e-06,0.0536
-9.1120e-06,-0.0688
-9.1080e-06,0.0264
-9.1040e-06,0.0464
-9.1000e-06,-0.076
-9.0960e-06,0.0376
-9.0920e-06,0.0368
-9.0880e-06,-0.0728
-9.0840e-06,0.0464
-9.0800e-06,0.0264
-9.0760e-06,-0.0728
-9.0720e-06,0.0544
-9.0680e-06,0.016
-9.0640e-06,-0.0704
-9.0600e-06,0.0616
-9.0560e-06,0.0032
-9.0520e-06,-0.0656
-9.0480e-06,0.0648
-9.0440e-06,-0.0048
-9.0400e-06,-0.056
-9.0360e-06,0.0688
-9.0320e-06,-0.0176
-9.0280e-06,-0.048
-9.0240e-06,0.0704
-9.0200e-06,-0.0296
-9.0160e-06,-0.04
-9.0120e-06,0.0744
-9.0080e-06,-0.0392
-9.0040e-06,-0.0304
-9.0000e-06,0.076
-8.9960e-06,-0.0456
-8.9920e-06,-0.016
-8.9880e-06,0.072
-8.9840e-06,-0.056
-8.9800e-06,-0.0112
-8.9760e-06,0.0664
-8.9720e-06,-0.0624
-8.9680e-06,0.0016
-8.9640e-06,0.0616
-8.9600e-06,-0.0664
-8.9560e-06,0.0144
-8.9520e-06,0.0536
-8.9480e-06,-0.068
-8.9440e-06,0.0232
-8.9400e-06,0.0496
-8.9360e-06,-0.0704
-8.9320e-06,0.0328
-8.9280e-06,0.0368
-8.9240e-06,-0.0704
-8.9200e-06,0.0432
-8.9160e-06,0.024
-8.9120e-06,-0.0688
-8.9080e-06,0.052
-8.9040e-06,0.016
-8.9000e-06,-0.068
-8.8960e-06,0.0592
-8.8920e-06,0.008
-8.8880e-06,-0.0664
-8.8840e-06,0.0672
-8.8800e-06,-0.008
-8.8760e-06,-0.0592
-8.8720e-06,0.0696
-8.8680e-06,-0.0152
-8.8640e-06,-0.0512
-8.8600e-06,0.0752
-8.8560e-06,-0.0272
-8.8520e-06,-0.0416
-8.8480e-06,0.072
-8.8440e-06,-0.0376
-8.8400e-06,-0.0344
-8.8360e-06,0.0768
-8.8320e-06,-0.0448
-8.8280e-06,-0.0192
-8.8240e-06,0.0712
-8.8200e-06,-0.0544
-8.8160e-06,-0.0096
-8.8120e-06,0.0704
-8.8080e-06,-0.0608
-8.8040e-06,-0.0048
-8.8000e-06,0.0656
-8.7960e-06,-0.0672
-8.7920e-06,0.0096
-8.7880e-06,0.0552
-8.7840e-06,-0.0696
-8.7800e-06,0.0224
-8.7760e-06,0.0496
-8.7720e-06,-0.0752
-8.7680e-06,0.0344
-8.7640e-06,0.0368
-8.7600e-06,-0.0752
-8.7560e-06,0.0416
-8.7520e-06,0.0272
-8.7480e-06,-0.0712
-8.7440e-06,0.0504
-8.7400e-06,0.02
-8.7360e-06,-0.068
-8.7320e-06,0.0592
-8.7280e-06,0.012
-8.7240e-06,-0.0664
-8.7200e-06,0.0648
-8.7160e-06,-0.0024
-8.7120e-06,-0.0608
-8.7080e-06,0.0696
-8.7040e-06,-0.0152
-8.7000e-06,-0.0528
-8.6960e-06,0.0744
-8.6920e-06,-0.0232
-8.6880e-06,-0.0432
-8.6840e-06,0.0736
-8.6800e-06,-0.0344
-8.6760e-06,-0.0368
-8.6720e-06,0.0744
-8.6680e-06,-0.0448
-8.6640e-06,-0.0248
-8.6600e-06,0.0744
-8.6560e-06,-0.052
-8.6520e-06,-0.012
-8.6480e-06,0.068
-8.6440e-06,-0.0608
-8.6400e-06,-0.0016
-8.6360e-06,0.0648
-8.6320e-06,-0.064
-8.6280e-06,0.0096
-8.6240e-06,0.056
-8.6200e-06,-0.068
-8.6160e-06,0.02
-8.6120e-06,0.0504
-8.6080e-06,-0.0736
-8.6040e-06,0.0304
-8.6000e-06,0.0408
-8.5960e-06,-0.0752
-8.5920e-06,0.0416
-8.5880e-06,0.0312
-8.5840e-06,-0.072
-8.5800e-06,0.0504
-8.5760e-06,0.0208
-8.5720e-06,-0.0704
-8.5680e-06,0.0552
-8.5640e-06,0.0152
-8.5600e-06,-0.0656
-8.5560e-06,0.0656
-8.5520e-06,-0.0024
-8.5480e-06,-0.0592
-8.5440e-06,0.0688
-8.5400e-06,-0.0104
-8.5360e-06,-0.0536
-8.5320e-06,0.0696
-8.5280e-06,-0.0248
-8.5240e-06,-0.0464
-8.5200e-06,0.0736
-8.5160e-06,-0.0336
-8.5120e-06,-0.0352
-8.5080e-06,0.0736
-8.5040e-06,-0.044
-8.5000e-06,-0.0248
-8.4960e-06,0.072
-8.4920e-06,-0.0496
-8.4880e-06,-0.0152
-8.4840e-06,0.0688
-8.4800e-06,-0.0552
-8.4760e-06,-0.0032
-8.4720e-06,0.0672
-8.4680e-06,-0.0648
-8.4640e-06,0.0088
-8.4600e-06,0.06
-8.4560e-06,-0.0704
-8.4520e-06,0.0176
-8.4480e-06,0.0512
-8.4440e-06,-0.0728
-8.4400e-06,0.032
-8.4360e-06,0.0424
-8.4320e-06,-0.0752
-8.4280e-06,0.04
-8.4240e-06,0.0352
-8.4200e-06,-0.0736
-8.4160e-06,0.0512
-8.4120e-06,0.0216
-8.4080e-06,-0.0712
-8.4040e-06,0.06
-8.4000e-06,0.0136
-8.3960e-06,-0.0672
-8.3920e-06,0.0632
-8.3880e-06,0
-8.3840e-06,-0.06
-8.3800e-06,0.0672
-8.3760e-06,-0.0088
-8.3720e-06,-0.0552
-8.3680e-06,0.0712
-8.3640e-06,-0.0264
-8.3600e-06,-0.0488
-8.3560e-06,0.0752
-8.3520e-06,-0.0336
-8.3480e-06,-0.0376
-8.3440e-06,0.0776
-8.3400e-06,-0.0416
-8.3360e-06,-0.0296
-8.3320e-06,0.0744
-8.3280e-06,-0.0544
-8.3240e-06,-0.0144
-8.3200e-06,0.068
-8.3160e-06,-0.0552
-8.3120e-06,-0.0072
-8.3080e-06,0.0672
-8.3040e-06,-0.0656
-8.3000e-06,0.0056
-8.2960e-06,0.0608
-8.2920e-06,-0.0688
-8.2880e-06,0.0184
-8.2840e-06,0.0544
-8.2800e-06,-0.072
-8.2760e-06,0.0272
-8.2720e-06,0.0432
-8.2680e-06,-0.0728
-8.2640e-06,0.0384
-8.2600e-06,0.0336
-8.2560e-06,-0.072
-8.2520e-06,0.0504
-8.2480e-06,0.0224
-8.2440e-06,-0.0696
-8.2400e-06,0.056
-8.2360e-06,0.0144
-8.2320e-06,-0.0688
-8.2280e-06,0.064
-8.2240e-06,0.0048
-8.2200e-06,-0.0616
-8.2160e-06,0.0704
-8.2120e-06,-0.008
-8.2080e-06,-0.0568
-8.2040e-06,0.0736
-8.2000e-06,-0.0184
-8.1960e-06,-0.0472
-8.1920e-06,0.0728
-8.1880e-06,-0.0304
-8.1840e-06,-0.0368
-8.1800e-06,0.0744
-8.1760e-06,-0.0408
-8.1720e-06,-0.028
-8.1680e-06,0.072
-8.1640e-06,-0.0464
-8.1600e-06,-0.02
-8.1560e-06,0.0736
-8.1520e-06,-0.056
-8.1480e-06,-0.0088
-8.1440e-06,0.0656
-8.1400e-06,-0.0624
-8.1360e-06,0.0024
-8.1320e-06,0.06
-8.1280e-06,-0.0688
-8.1240e-06,0.0152
-8.1200e-06,0.0528
-8.1160e-06,-0.0704
-8.1120e-06,0.0256
-8.1080e-06,0.0432
-8.1040e-06,-0.0736
-8.1000e-06,0.0376
-8.0960e-06,0.0352
-8.0920e-06,-0.072
-8.0880e-06,0.0472
-8.0840e-06,0.0264
-8.0800e-06,-0.0728
-8.0760e-06,0.0552
-8.0720e-06,0.0136
-8.0680e-06,-0.0688
-8.0640e-06,0.0616
-8.0600e-06,0.0064
-8.0560e-06,-0.0632
-8.0520e-06,0.0648
-8.0480e-06,-0.0096
-8.0440e-06,-0.0568
-8.0400e-06,0.0712
-8.0360e-06,-0.0168
-8.0320e-06,-0.0464
-8.0280e-06,0.0744
-8.0240e-06,-0.0296
-8.0200e-06,-0.0392
-8.0160e-06,0.076
-8.0120e-06,-0.0376
-8.0080e-06,-0.032
-8.0040e-06,0.0728
-8.0000e-06,-0.0488
-7.9960e-06,-0.0184
-7.9920e-06,0.0736
-7.9880e-06,-0.056
-7.9840e-06,-0.008
-7.9800e-06,0.0696
-7.9760e-06,-0.0624
-7.9720e-06,0.0008
-7.9680e-06,0.0648
-7.9640e-06,-0.0688
-7.9600e-06,0.0144
-7.9560e-06,0.0552
-7.9520e-06,-0.0712
-7.9480e-06,0.0256
-7.9440e-06,0.0456
-7.9400e-06,-0.0744
-7.9360e-06,0.036
-7.9320e-06,0.0368
-7.9280e-06,-0.0752
-7.9240e-06,0.0448
-7.9200e-06,0.0264
-7.9160e-06,-0.0744
-7.9120e-06,0.0528
-7.9080e-06,0.016
-7.9040e-06,-0.068
-7.9000e-06,0.06
-7.8960e-06,0.004
-7.8920e-06,-0.0648
-7.8880e-06,0.0712
-7.8840e-06,-0.0064
-7.8800e-06,-0.0584
-7.8760e-06,0.0712
-7.8720e-06,-0.0176
-7.8680e-06,-0.0504
-7.8640e-06,0.0752
-7.8600e-06,-0.0264
-7.8560e-06,-0.04
-7.8520e-06,0.0768
-7.8480e-06,-0.0392
-7.8440e-06,-0.0312
-7.8400e-06,0.0712
-7.8360e-06,-0.048
-7.8320e-06,-0.0208
-7.8280e-06,0.0736
-7.8240e-06,-0.0496
-7.8200e-06,-0.0104
-7.8160e-06,0.0672
-7.8120e-06,-0.06
-7.8080e-06,0.0016
-7.8040e-06,0.0616
-7.8000e-06,-0.0664
-7.7960e-06,0.0128
-7.7920e-06,0.056
-7.7880e-06,-0.072
-7.7840e-06,0.0232
-7.7800e-06,0.048
-7.7760e-06,-0.0728
-7.7720e-06,0.0344
-7.7680e-06,0.0384
-7.7640e-06,-0.072
-7.7600e-06,0.0424
-7.7560e-06,0.0288
-7.7520e-06,-0.072
-7.7480e-06,0.052
-7.7440e-06,0.0176
-7.7400e-06,-0.072
-7.7360e-06,0.0608
-7.7320e-06,0.008
-7.7280e-06,-0.0664
-7.7240e-06,0.0648
-7.7200e-06,-0.0064
-7.7160e-06,-0.06
-7.7120e-06,0.0688
-7.7080e-06,-0.0136
-7.7040e-06,-0.0544
-7.7000e-06,0.0752
-7.6960e-06,-0.0256
-7.6920e-06,-0.0424
-7.6880e-06,0.0752
-7.6840e-06,-0.0352
-7.6800e-06,-0.032
-7.6760e-06,0.0736
-7.6720e-06,-0.0472
-7.6680e-06,-0.0216
-7.6640e-06,0.0768
-7.6600e-06,-0.0528
-7.6560e-06,-0.012
-7.6520e-06,0.0664
-7.6480e-06,-0.0592
-7.6440e-06,0
-7.6400e-06,0.0656
-7.6360e-06,-0.0648
-7.6320e-06,0.008
-7.6280e-06,0.0576
-7.6240e-06,-0.0712
-7.6200e-06,0.02
-7.6160e-06,0.0488
-7.6120e-06,-0.072
-7.6080e-06,0.0336
-7.6040e-06,0.04
-7.6000e-06,-0.0744
-7.5960e-06,0.0432
-7.5920e-06,0.0304
-7.5880e-06,-0.0696
-7.5840e-06,0.0488
-7.5800e-06,0.0232
-7.5760e-06,-0.0688
-7.5720e-06,0.0584
-7.5680e-06,0.008
-7.5640e-06,-0.0672
-7.5600e-06,0.0624
-7.5560e-06,-0.0008
-7.5520e-06,-0.0592
-7.5480e-06,0.0712
-7.5440e-06,-0.0136
-7.5400e-06,-0.0528
-7.5360e-06,0.0704
-7.5320e-06,-0.024
-7.5280e-06,-0.0456
-7.5240e-06,0.0768
-7.5200e-06,-0.0368
-7.5160e-06,-0.0328
-7.5120e-06,0.0752
-7.5080e-06,-0.0432
-7.5040e-06,-0.024
-7.5000e-06,0.0752
-7.4960e-06,-0.0512
-7.4920e-06,-0.0136
-7.4880e-06,0.0712
-7.4840e-06,-0.0608
-7.4800e-06,-0.0032
-7.4760e-06,0.0656
-7.4720e-06,-0.0664
-7.4680e-06,0.0056
-7.4640e-06,0.0552
-7.4600e-06,-0.0688
-7.4560e-06,0.0184
-7.4520e-06,0.0512
-7.4480e-06,-0.0728
-7.4440e-06,0.0344
-7.4400e-06,0.0416
-7.4360e-06,-0.0712
-7.4320e-06,0.04
-7.4280e-06,0.0296
-7.4240e-06,-0.0712
-7.4200e-06,0.0496
-7.4160e-06,0.0216
-7.4120e-06,-0.0712
-7.4080e-06,0.0592
-7.4040e-06,0.0088
-7.4000e-06,-0.0648
-7.3960e-06,0.0616
-7.3920e-06,-0.0008
-7.3880e-06,-0.0608
-7.3840e-06,0.0688
-7.3800e-06,-0.0104
-7.3760e-06,-0.052
-7.3720e-06,0.0704
-7.3680e-06,-0.0224
-7.3640e-06,-0.044
-7.3600e-06,0.0768
-7.3560e-06,-0.032
-7.3520e-06,-0.0352
-7.3480e-06,0.076
-7.3440e-06,-0.0424
-7.3400e-06,-0.0272
-7.3360e-06,0.0768
-7.3320e-06,-0.052
-7.3280e-06,-0.0144
-7.3240e-06,0.0672
-7.3200e-06,-0.0584
-7.3160e-06,-0.0048
-7.3120e-06,0.0664
-7.3080e-06,-0.0632
-7.3040e-06,0.0048
-7.3000e-06,0.0608
-7.2960e-06,-0.0688
-7.2920e-06,0.0144
-7.2880e-06,0.048
-7.2840e-06,-0.0736
-7.2800e-06,0.0304
-7.2760e-06,0.0424
-7.2720e-06,-0.0728
-7.2680e-06,0.0392
-7.2640e-06,0.032
-7.2600e-06,-0.0744
-7.2560e-06,0.0464
-7.2520e-06,0.0232
-7.2480e-06,-0.068
-7.2440e-06,0.0576
-7.2400e-06,0.012
-7.2360e-06,-0.068
-7.2320e-06,0.0648
-7.2280e-06,0.0024
-7.2240e-06,-0.0616
-7.2200e-06,0.0704
-7.2160e-06,-0.0112
-7.2120e-06,-0.0544
-7.2080e-06,0.072
-7.2040e-06,-0.0208
-7.2000e-06,-0.0456
-7.1960e-06,0.0736
-7.1920e-06,-0.032
-7.1880e-06,-0.0384
-7.1840e-06,0.0784
-7.1800e-06,-0.0408
-7.1760e-06,-0.0264
-7.1720e-06,0.0744
-7.1680e-06,-0.0472
-7.1640e-06,-0.0168
-7.1600e-06,0.0704
-7.1560e-06,-0.0568
-7.1520e-06,-0.0056
-7.1480e-06,0.0672
-7.1440e-06,-0.0624
-7.1400e-06,0.0056
-7.1360e-06,0.064
-7.1320e-06,-0.0664
-7.1280e-06,0.0144
-7.1240e-06,0.0512
-7.1200e-06,-0.0728
-7.1160e-06,0.0256
-7.1120e-06,0.0432
-7.1080e-06,-0.072
-7.1040e-06,0.0384
-7.1000e-06,0.0352
-7.0960e-06,-0.0736
-7.0920e-06,0.0496
-7.0880e-06,0.0224
-7.0840e-06,-0.072
-7.0800e-06,0.0584
-7.0760e-06,0.0144
-7.0720e-06,-0.0664
-7.0680e-06,0.0624
-7.0640e-06,0.0016
-7.0600e-06,-0.0624
-7.0560e-06,0.0656
-7.0520e-06,-0.0104
-7.0480e-06,-0.0536
-7.0440e-06,0.0736
-7.0400e-06,-0.0184
-7.0360e-06,-0.048
-7.0320e-06,0.0768
-7.0280e-06,-0.0288
-7.0240e-06,-0.0408
-7.0200e-06,0.0744
-7.0160e-06,-0.0392
-7.0120e-06,-0.0288
-7.0080e-06,0.0736
-7.0040e-06,-0.048
-7.0000e-06,-0.02
-6.9960e-06,0.0688
-6.9920e-06,-0.0568
-6.9880e-06,-0.008
-6.9840e-06,0.0672
-6.9800e-06,-0.0656
-6.9760e-06,0.004
-6.9720e-06,0.0624
-6.9680e-06,-0.0664
-6.9640e-06,0.0152
-6.9600e-06,0.0568
-6.9560e-06,-0.0696
-6.9520e-06,0.0288
-6.9480e-06,0.0432
-6.9440e-06,-0.0736
-6.9400e-06,0.0376
-6.9360e-06,0.0344
-6.9320e-06,-0.0736
-6.9280e-06,0.044
-6.9240e-06,0.0264
-6.9200e-06,-0.0712
-6.9160e-06,0.0504
-6.9120e-06,0.0152
-6.9080e-06,-0.0696
-6.9040e-06,0.0616
-6.9000e-06,0.0032
-6.8960e-06,-0.0616
-6.8920e-06,0.0688
-6.8880e-06,-0.0072
-6.8840e-06,-0.0552
-6.8800e-06,0.072
-6.8760e-06,-0.02
-6.8720e-06,-0.0504
-6.8680e-06,0.0736
-6.8640e-06,-0.028
-6.8600e-06,-0.0392
-6.8560e-06,0.076
-6.8520e-06,-0.0408
-6.8480e-06,-0.032
-6.8440e-06,0.0744
-6.8400e-06,-0.0464
-6.8360e-06,-0.0176
-6.8320e-06,0.0712
-6.8280e-06,-0.056
-6.8240e-06,-0.0088
-6.8200e-06,0.068
-6.8160e-06,-0.0632
-6.8120e-06,0.0024
-6.8080e-06,0.0624
-6.8040e-06,-0.068
-6.8000e-06,0.012
-6.7960e-06,0.056
-6.7920e-06,-0.0712
-6.7880e-06,0.0248
-6.7840e-06,0.0464
-6.7800e-06,-0.0704
-6.7760e-06,0.0336
-6.7720e-06,0.0376
-6.7680e-06,-0.076
-6.7640e-06,0.0424
-6.7600e-06,0.0272
-6.7560e-06,-0.0704
-6.7520e-06,0.0544
-6.7480e-06,0.016
-6.7440e-06,-0.068
-6.7400e-06,0.0608
-6.7360e-06,0.0048
-6.7320e-06,-0.064
-6.7280e-06,0.0664
-6.7240e-06,-0.0064
-6.7200e-06,-0.0608
-6.7160e-06,0.0712
-6.7120e-06,-0.0152
-6.7080e-06,-0.0536
-6.7040e-06,0.0736
-6.7000e-06,-0.0272
-6.6960e-06,-0.0424
-6.6920e-06,0.0736
-6.6880e-06,-0.0376
-6.6840e-06,-0.0328
-6.6800e-06,0.0728
-6.6760e-06,-0.0464
-6.6720e-06,-0.0184
-6.6680e-06,0.0712
-6.6640e-06,-0.0568
-6.6600e-06,-0.0112
-6.6560e-06,0.0672
-6.6520e-06,-0.0592
-6.6480e-06,-0.0016
-6.6440e-06,0.0608
-6.6400e-06,-0.0688
-6.6360e-06,0.0112
-6.6320e-06,0.056
-6.6280e-06,-0.0696
-6.6240e-06,0.0224
-6.6200e-06,0.0472
-6.6160e-06,-0.0704
-6.6120e-06,0.0328
-6.6080e-06,0.0392
-6.6040e-06,-0.0704
-6.6000e-06,0.0432
-6.5960e-06,0.0272
-6.5920e-06,-0.0736
-6.5880e-06,0.0512
-6.5840e-06,0.0192
-6.5800e-06,-0.0688
-6.5760e-06,0.06
-6.5720e-06,0.0048
-6.5680e-06,-0.0664
-6.5640e-06,0.068
-6.5600e-06,-0.004
-6.5560e-06,-0.0608
-6.5520e-06,0.0688
-6.5480e-06,-0.0168
-6.5440e-06,-0.052
-6.5400e-06,0.076
-6.5360e-06,-0.0248
-6.5320e-06,-0.0424
-6.5280e-06,0.0736
-6.5240e-06,-0.036
-6.5200e-06,-0.0352
-6.5160e-06,0.076
-6.5120e-06,-0.0456
-6.5080e-06,-0.0208
-6.5040e-06,0.072
-6.5000e-06,-0.0528
-6.4960e-06,-0.012
-6.4920e-06,0.0688
-6.4880e-06,-0.0584
-6.4840e-06,0.0008
-6.4800e-06,0.0672
-6.4760e-06,-0.0648
-6.4720e-06,0.0112
-6.4680e-06,0.0624
-6.4640e-06,-0.0696
-6.4600e-06,0.0176
-6.4560e-06,0.0472
-6.4520e-06,-0.072
-6.4480e-06,0.0296
-6.4440e-06,0.04
-6.4400e-06,-0.0736
-6.4360e-06,0.04
-6.4320e-06,0.0296
-6.4280e-06,-0.0736
-6.4240e-06,0.0504
-6.4200e-06,0.02
-6.4160e-06,-0.0696
-6.4120e-06,0.0608
-6.4080e-06,0.0104
-6.4040e-06,-0.0672
-6.4000e-06,0.0664
-6.3960e-06,-0.0032
-6.3920e-06,-0.0576
-6.3880e-06,0.0688
-6.3840e-06,-0.012
-6.3800e-06,-0.0512
-6.3760e-06,0.072
-6.3720e-06,-0.0264
-6.3680e-06,-0.044
-6.3640e-06,0.0744
-6.3600e-06,-0.0376
-6.3560e-06,-0.036
-6.3520e-06,0.0752
-6.3480e-06,-0.044
-6.3440e-06,-0.0232
-6.3400e-06,0.0712
-6.3360e-06,-0.0512
-6.3320e-06,-0.016
-6.3280e-06,0.0688
-6.3240e-06,-0.06
-6.3200e-06,-0.0008
-6.3160e-06,0.0656
-6.3120e-06,-0.0656
-6.3080e-06,0.0072
-6.3040e-06,0.056
-6.3000e-06,-0.0688
-6.2960e-06,0.02
-6.2920e-06,0.0496
-6.2880e-06,-0.072
-6.2840e-06,0.0304
-6.2800e-06,0.0424
-6.2760e-06,-0.0736
-6.2720e-06,0.0392
-6.2680e-06,0.0296
-6.2640e-06,-0.0712
-6.2600e-06,0.0496
-6.2560e-06,0.0216
-6.2520e-06,-0.068
-6.2480e-06,0.0552
-6.2440e-06,0.008
-6.2400e-06,-0.068
-6.2360e-06,0.0624
-6.2320e-06,-0.0032
-6.2280e-06,-0.0592
-6.2240e-06,0.064
-6.2200e-06,-0.0112
-6.2160e-06,-0.0512
-6.2120e-06,0.0752
-6.2080e-06,-0.0232
-6.2040e-06,-0.0464
-6.2000e-06,0.0728
-6.1960e-06,-0.0328
-6.1920e-06,-0.0368
-6.1880e-06,0.0736
-6.1840e-06,-0.044
-6.1800e-06,-0.0264
-6.1760e-06,0.0712
-6.1720e-06,-0.0528
-6.1680e-06,-0.0176
-6.1640e-06,0.0736
-6.1600e-06,-0.0592
-6.1560e-06,-0.0048
-6.1520e-06,0.0656
-6.1480e-06,-0.0648
-6.1440e-06,0.0056
-6.1400e-06,0.06
-6.1360e-06,-0.068
-6.1320e-06,0.0168
-6.1280e-06,0.052
-6.1240e-06,-0.072
-6.1200e-06,0.028
-6.1160e-06,0.04
-6.1120e-06,-0.0736
-6.1080e-06,0.0384
-6.1040e-06,0.0304
-6.1000e-06,-0.0688
-6.0960e-06,0.0528
-6.0920e-06,0.0232
-6.0880e-06,-0.0704
-6.0840e-06,0.056
-6.0800e-06,0.0144
-6.0760e-06,-0.0672
-6.0720e-06,0.0656
-6.0680e-06,0.0016
-6.0640e-06,-0.0624
-6.0600e-06,0.0656
-6.0560e-06,-0.012
-6.0520e-06,-0.0544
-6.0480e-06,0.0704
-6.0440e-06,-0.02
-6.0400e-06,-0.0456
-6.0360e-06,0.0744
-6.0320e-06,-0.0296
-6.0280e-06,-0.04
-6.0240e-06,0.072
-6.0200e-06,-0.0384
-6.0160e-06,-0.0272
-6.0120e-06,0.0728
-6.0080e-06,-0.0512
-6.0040e-06,-0.0152
-6.0000e-06,0.0728
-5.9960e-06,-0.0568
-5.9920e-06,-0.008
-5.9880e-06,0.0656
-5.9840e-06,-0.0664
-5.9800e-06,0.0024
-5.9760e-06,0.0608
-5.9720e-06,-0.068
-5.9680e-06,0.0152
-5.9640e-06,0.0512
-5.9600e-06,-0.0704
-5.9560e-06,0.0304
-5.9520e-06,0.0424
-5.9480e-06,-0.0752
-5.9440e-06,0.0384
-5.9400e-06,0.0336
-5.9360e-06,-0.0736
-5.9320e-06,0.0456
-5.9280e-06,0.0216
-5.9240e-06,-0.072
-5.9200e-06,0.056
-5.9160e-06,0.0104
-5.9120e-06,-0.0664
-5.9080e-06,0.0632
-5.9040e-06,0.0016
-5.9000e-06,-0.0624
-5.8960e-06,0.0672
-5.8920e-06,-0.0072
-5.8880e-06,-0.0552
-5.8840e-06,0.072
-5.8800e-06,-0.0192
-5.8760e-06,-0.0472
-5.8720e-06,0.0736
-5.8680e-06,-0.0288
-5.8640e-06,-0.0392
-5.8600e-06,0.0736
-5.8560e-06,-0.0392
-5.8520e-06,-0.0256
-5.8480e-06,0.0728
-5.8440e-06,-0.0464
-5.8400e-06,-0.0184
-5.8360e-06,0.0704
-5.8320e-06,-0.0536
-5.8280e-06,-0.008
-5.8240e-06,0.0656
-5.8200e-06,-0.0616
-5.8160e-06,0.0032
-5.8120e-06,0.06
-5.8080e-06,-0.0656
-5.8040e-06,0.0144
-5.8000e-06,0.0552
-5.7960e-06,-0.0712
-5.7920e-06,0.0232
-5.7880e-06,0.0464
-5.7840e-06,-0.0736
-5.7800e-06,0.0352
-5.7760e-06,0.0336
-5.7720e-06,-0.0704
-5.7680e-06,0.0464
-5.7640e-06,0.0224
-5.7600e-06,-0.0688
-5.7560e-06,0.0544
-5.7520e-06,0.0136
-5.7480e-06,-0.0672
-5.7440e-06,0.0584
-5.7400e-06,0.0056
-5.7360e-06,-0.0648
-5.7320e-06,0.0664
-5.7280e-06,-0.0032
-5.7240e-06,-0.056
-5.7200e-06,0.0712
-5.7160e-06,-0.0168
-5.7120e-06,-0.0488
-5.7080e-06,0.0744
-5.7040e-06,-0.0248
-5.7000e-06,-0.0424
-5.6960e-06,0.0736
-5.6920e-06,-0.0384
-5.6880e-06,-0.0312
-5.6840e-06,0.0728
-5.6800e-06,-0.0496
-5.6760e-06,-0.0176
-5.6720e-06,0.072
-5.6680e-06,-0.056
-5.6640e-06,-0.008
-5.6600e-06,0.0672
-5.6560e-06,-0.0624
-5.6520e-06,0.0008
-5.6480e-06,0.064
-5.6440e-06,-0.0696
-5.6400e-06,0.012
-5.6360e-06,0.0552
-5.6320e-06,-0.0712
-5.6280e-06,0.024
-5.6240e-06,0.0464
-5.6200e-06,-0.0744
-5.6160e-06,0.0328
-5.6120e-06,0.0384
-5.6080e-06,-0.0736
-5.6040e-06,0.044
-5.6000e-06,0.0248
-5.5960e-06,-0.0712
-5.5920e-06,0.0536
-5.5880e-06,0.016
-5.5840e-06,-0.068
-5.5800e-06,0.0576
-5.5760e-06,0.0064
-5.5720e-06,-0.0648
-5.5680e-06,0.0688
-5.5640e-06,-0.0072
-5.5600e-06,-0.0584
-5.5560e-06,0.0696
-5.5520e-06,-0.016
-5.5480e-06,-0.048
-5.5440e-06,0.0728
-5.5400e-06,-0.0288
-5.5360e-06,-0.04
-5.5320e-06,0.0704
-5.5280e-06,-0.0344
-5.5240e-06,-0.0312
-5.5200e-06,0.076
-5.5160e-06,-0.0472
-5.5120e-06,-0.0248
-5.5080e-06,0.0736
-5.5040e-06,-0.0552
-5.5000e-06,-0.0112
-5.4960e-06,0.068
-5.4920e-06,-0.0584
-5.4880e-06,-0.0008
-5.4840e-06,0.0616
-5.4800e-06,-0.0656
-5.4760e-06,0.0112
-5.4720e-06,0.0552
-5.4680e-06,-0.072
-5.4640e-06,0.02
-5.4600e-06,0.048
-5.4560e-06,-0.0696
-5.4520e-06,0.0336
-5.4480e-06,0.0344
-5.4440e-06,-0.0704
-5.4400e-06,0.036
-5.4360e-06,0.0304
-5.4320e-06,-0.0688
-5.4280e-06,0.0504
-5.4240e-06,0.0168
-5.4200e-06,-0.0648
-5.4160e-06,0.0608
-5.4120e-06,0.008
-5.4080e-06,-0.0648
-5.4040e-06,0.0624
-5.4000e-06,-0.0008
-5.3960e-06,-0.0576
-5.3920e-06,0.0704
-5.3880e-06,-0.0152
-5.3840e-06,-0.0504
-5.3800e-06,0.0704
-5.3760e-06,-0.024
-5.3720e-06,-0.0416
-5.3680e-06,0.0728
-5.3640e-06,-0.0344
-5.3600e-06,-0.036
-5.3560e-06,0.072
-5.3520e-06,-0.0416
-5.3480e-06,-0.0216
-5.3440e-06,0.0712
-5.3400e-06,-0.0552
-5.3360e-06,-0.0152
-5.3320e-06,0.068
-5.3280e-06,-0.0616
-5.3240e-06,0.0008
-5.3200e-06,0.0616
-5.3160e-06,-0.0624
-5.3120e-06,0.0096
-5.3080e-06,0.0552
-5.3040e-06,-0.0696
-5.3000e-06,0.0216
-5.2960e-06,0.0488
-5.2920e-06,-0.072
-5.2880e-06,0.0328
-5.2840e-06,0.04
-5.2800e-06,-0.0712
-5.2760e-06,0.0416
-5.2720e-06,0.0304
-5.2680e-06,-0.0752
-5.2640e-06,0.0512
-5.2600e-06,0.0208
-5.2560e-06,-0.0704
-5.2520e-06,0.056
-5.2480e-06,0.0096
-5.2440e-06,-0.064
-5.2400e-06,0.0672
-5.2360e-06,-0.0008
-5.2320e-06,-0.0624
-5.2280e-06,0.0704
-5.2240e-06,-0.0136
-5.2200e-06,-0.0544
-5.2160e-06,0.0688
-5.2120e-06,-0.0224
-5.2080e-06,-0.0464
-5.2040e-06,0.0752
-5.2000e-06,-0.032
-5.1960e-06,-0.0368
-5.1920e-06,0.0752
-5.1880e-06,-0.04
-5.1840e-06,-0.024
-5.1800e-06,0.0712
-5.1760e-06,-0.0512
-5.1720e-06,-0.0136
-5.1680e-06,0.068
-5.1640e-06,-0.0592
-5.1600e-06,-0.004
-5.1560e-06,0.0632
-5.1520e-06,-0.064
-5.1480e-06,0.0072
-5.1440e-06,0.0544
-5.1400e-06,-0.0672
-5.1360e-06,0.02
-5.1320e-06,0.048
-5.1280e-06,-0.0688
-5.1240e-06,0.0304
-5.1200e-06,0.0416
-5.1160e-06,-0.072
-5.1120e-06,0.0368
-5.1080e-06,0.0328
-5.1040e-06,-0.0696
-5.1000e-06,0.0464
-5.0960e-06,0.0208
-5.0920e-06,-0.0704
-5.0880e-06,0.056
-5.0840e-06,0.0104
-5.0800e-06,-0.0672
-5.0760e-06,0.06
-5.0720e-06,0.0016
-5.0680e-06,-0.0584
-5.0640e-06,0.0656
-5.0600e-06,-0.0144
-5.0560e-06,-0.0536
-5.0520e-06,0.0688
-5.0480e-06,-0.0208
-5.0440e-06,-0.0464
-5.0400e-06,0.0752
-5.0360e-06,-0.0352
-5.0320e-06,-0.0408
-5.0280e-06,0.072
-5.0240e-06,-0.04
-5.0200e-06,-0.0264
-5.0160e-06,0.072
-5.0120e-06,-0.0504
-5.0080e-06,-0.0152
-5.0040e-06,0.0688
-5.0000e-06,-0.056
-4.9960e-06,-0.004
-4.9920e-06,0.0672
-4.9880e-06,-0.0664
-4.9840e-06,0.0048
-4.9800e-06,0.0584
-4.9760e-06,-0.0696
-4.9720e-06,0.02
-4.9680e-06,0.0528
-4.9640e-06,-0.0704
-4.9600e-06,0.0264
-4.9560e-06,0.0464
-4.9520e-06,-0.0712
-4.9480e-06,0.0392
-4.9440e-06,0.032
-4.9400e-06,-0.0696
-4.9360e-06,0.0488
-4.9320e-06,0.024
-4.9280e-06,-0.0704
-4.9240e-06,0.0576
-4.9200e-06,0.0136
-4.9160e-06,-0.0688
-4.9120e-06,0.0624
-4.9080e-06,-0.0008
-4.9040e-06,-0.0608
-4.9000e-06,0.0664
-4.8960e-06,-0.008
-4.8920e-06,-0.0544
-4.8880e-06,0.0752
-4.8840e-06,-0.0216
-4.8800e-06,-0.0472
-4.8760e-06,0.0736
-4.8720e-06,-0.032
-4.8680e-06,-0.0376
-4.8640e-06,0.076
-4.8600e-06,-0.04
-4.8560e-06,-0.0264
-4.8520e-06,0.0736
-4.8480e-06,-0.048
-4.8440e-06,-0.0184
-4.8400e-06,0.0712
-4.8360e-06,-0.0568
-4.8320e-06,-0.008
-4.8280e-06,0.0672
-4.8240e-06,-0.0624
-4.8200e-06,0.0024
-4.8160e-06,0.06
-4.8120e-06,-0.0704
-4.8080e-06,0.0176
-4.8040e-06,0.0512
-4.8000e-06,-0.0728
-4.7960e-06,0.028
-4.7920e-06,0.0456
-4.7880e-06,-0.0752
-4.7840e-06,0.0352
-4.7800e-06,0.032
-4.7760e-06,-0.072
-4.7720e-06,0.044
-4.7680e-06,0.0272
-4.7640e-06,-0.072
-4.7600e-06,0.0528
-4.7560e-06,0.0136
-4.7520e-06,-0.0672
-4.7480e-06,0.0608
-4.7440e-06,0.0032
-4.7400e-06,-0.0632
-4.7360e-06,0.0688
-4.7320e-06,-0.008
-4.7280e-06,-0.056
-4.7240e-06,0.072
-4.7200e-06,-0.0176
-4.7160e-06,-0.0464
-4.7120e-06,0.072
-4.7080e-06,-0.028
-4.7040e-06,-0.04
-4.7000e-06,0.0768
-4.6960e-06,-0.036
-4.6920e-06,-0.0288
-4.6880e-06,0.0712
-4.6840e-06,-0.048
-4.6800e-06,-0.0224
-4.6760e-06,0.068
-4.6720e-06,-0.0528
-4.6680e-06,-0.0096
-4.6640e-06,0.0672
-4.6600e-06,-0.06
-4.6560e-06,0.0024
-4.6520e-06,0.0624
-4.6480e-06,-0.0656
-4.6440e-06,0.012
-4.6400e-06,0.0568
-4.6360e-06,-0.068
-4.6320e-06,0.024
-4.6280e-06,0.0456
-4.6240e-06,-0.0712
-4.6200e-06,0.0368
-4.6160e-06,0.0328
-4.6120e-06,-0.0704
-4.6080e-06,0.0456
-4.6040e-06,0.0272
-4.6000e-06,-0.0696
-4.5960e-06,0.0512
-4.5920e-06,0.0152
-4.5880e-06,-0.0704
-4.5840e-06,0.06
-4.5800e-06,0.0056
-4.5760e-06,-0.0624
-4.5720e-06,0.0648
-4.5680e-06,-0.0072
-4.5640e-06,-0.056
-4.5600e-06,0.0696
-4.5560e-06,-0.0152
-4.5520e-06,-0.0512
-4.5480e-06,0.0744
-4.5440e-06,-0.028
-4.5400e-06,-0.0432
-4.5360e-06,0.0736
-4.5320e-06,-0.0368
-4.5280e-06,-0.0352
-4.5240e-06,0.0712
-4.5200e-06,-0.0488
-4.5160e-06,-0.0224
-4.5120e-06,0.0688
-4.5080e-06,-0.052
-4.5040e-06,-0.0144
-4.5000e-06,0.0664
-4.4960e-06,-0.0648
-4.4920e-06,0
-4.4880e-06,0.0616
-4.4840e-06,-0.0672
-4.4800e-06,0.012
-4.4760e-06,0.0544
-4.4720e-06,-0.0688
-4.4680e-06,0.0248
-4.4640e-06,0.0464
-4.4600e-06,-0.0712
-4.4560e-06,0.0344
-4.4520e-06,0.0392
-4.4480e-06,-0.0728
-4.4440e-06,0.0432
-4.4400e-06,0.0272
-4.4360e-06,-0.0712
-4.4320e-06,0.0528
-4.4280e-06,0.0168
-4.4240e-06,-0.0688
-4.4200e-06,0.0592
-4.4160e-06,0.0056
-4.4120e-06,-0.0632
-4.4080e-06,0.0672
-4.4040e-06,-0.0048
-4.4000e-06,-0.0592
-4.3960e-06,0.0688
-4.3920e-06,-0.0136
-4.3880e-06,-0.0472
-4.3840e-06,0.0728
-4.3800e-06,-0.024
-4.3760e-06,-0.0448
-4.3720e-06,0.0736
-4.3680e-06,-0.0344
-4.3640e-06,-0.0352
-4.3600e-06,0.0736
-4.3560e-06,-0.0464
-4.3520e-06,-0.0216
-4.3480e-06,0.0712
-4.3440e-06,-0.0504
-4.3400e-06,-0.012
-4.3360e-06,0.0688
-4.3320e-06,-0.0576
-4.3280e-06,-0.0024
-4.3240e-06,0.0648
-4.3200e-06,-0.0648
-4.3160e-06,0.012
-4.3120e-06,0.0568
-4.3080e-06,-0.0696
-4.3040e-06,0.0224
-4.3000e-06,0.048
-4.2960e-06,-0.0704
-4.2920e-06,0.0312
-4.2880e-06,0.0384
-4.2840e-06,-0.0752
-4.2800e-06,0.0416
-4.2760e-06,0.0272
-4.2720e-06,-0.072
-4.2680e-06,0.0496
-4.2640e-06,0.02
-4.2600e-06,-0.0688
-4.2560e-06,0.0576
-4.2520e-06,0.0072
-4.2480e-06,-0.0648
-4.2440e-06,0.0632
-4.2400e-06,-0.0016
-4.2360e-06,-0.0584
-4.2320e-06,0.068
-4.2280e-06,-0.0112
-4.2240e-06,-0.052
-4.2200e-06,0.072
-4.2160e-06,-0.024
-4.2120e-06,-0.048
-4.2080e-06,0.0744
-4.2040e-06,-0.0336
-4.2000e-06,-0.0344
-4.1960e-06,0.0752
-4.1920e-06,-0.0416
-4.1880e-06,-0.0248
-4.1840e-06,0.0744
-4.1800e-06,-0.0504
-4.1760e-06,-0.0168
-4.1720e-06,0.0704
-4.1680e-06,-0.0592
-4.1640e-06,-0.0024
-4.1600e-06,0.0648
-4.1560e-06,-0.0648
-4.1520e-06,0.0088
-4.1480e-06,0.056
-4.1440e-06,-0.0696
-4.1400e-06,0.02
-4.1360e-06,0.0488
-4.1320e-06,-0.0704
-4.1280e-06,0.028
-4.1240e-06,0.0416
-4.1200e-06,-0.0744
-4.1160e-06,0.036
-4.1120e-06,0.0312
-4.1080e-06,-0.0712
-4.1040e-06,0.0464
-4.1000e-06,0.0232
-4.0960e-06,-0.068
-4.0920e-06,0.056
-4.0880e-06,0.0104
-4.0840e-06,-0.0648
-4.0800e-06,0.0664
-4.0760e-06,0.0008
-4.0720e-06,-0.06
-4.0680e-06,0.0696
-4.0640e-06,-0.0096
-4.0600e-06,-0.0528
-4.0560e-06,0.072
-4.0520e-06,-0.0224
-4.0480e-06,-0.0464
-4.0440e-06,0.0752
-4.0400e-06,-0.0312
-4.0360e-06,-0.0336
-4.0320e-06,0.0736
-4.0280e-06,-0.0416
-4.0240e-06,-0.0256
-4.0200e-06,0.0728
-4.0160e-06,-0.0488
-4.0120e-06,-0.016
-4.0080e-06,0.068
-4.0040e-06,-0.0568
-4.0000e-06,-0.0024
-3.9960e-06,0.0656
-3.9920e-06,-0.0608
-3.9880e-06,0.0056
-3.9840e-06,0.06
-3.9800e-06,-0.068
-3.9760e-06,0.0152
-3.9720e-06,0.0504
-3.9680e-06,-0.0696
-3.9640e-06,0.0264
-3.9600e-06,0.0424
-3.9560e-06,-0.072
-3.9520e-06,0.0384
-3.9480e-06,0.0336
-3.9440e-06,-0.0728
-3.9400e-06,0.0488
-3.9360e-06,0.0232
-3.9320e-06,-0.068
-3.9280e-06,0.0568
-3.9240e-06,0.0096
-3.9200e-06,-0.0696
-3.9160e-06,0.06
-3.9120e-06,0.0016
-3.9080e-06,-0.0608
-3.9040e-06,0.0696
-3.9000e-06,-0.012
-3.8960e-06,-0.056
-3.8920e-06,0.0712
-3.8880e-06,-0.02
-3.8840e-06,-0.048
-3.8800e-06,0.0736
-3.8760e-06,-0.0304
-3.8720e-06,-0.0376
-3.8680e-06,0.076
-3.8640e-06,-0.04
-3.8600e-06,-0.0264
-3.8560e-06,0.0736
-3.8520e-06,-0.0496
-3.8480e-06,-0.0168
-3.8440e-06,0.072
-3.8400e-06,-0.056
-3.8360e-06,-0.0056
-3.8320e-06,0.068
-3.8280e-06,-0.0656
-3.8240e-06,0.0048
-3.8200e-06,0.0592
-3.8160e-06,-0.064
-3.8120e-06,0.016
-3.8080e-06,0.0496
-3.8040e-06,-0.068
-3.8000e-06,0.024
-3.7960e-06,0.0432
-3.7920e-06,-0.076
-3.7880e-06,0.0368
-3.7840e-06,0.036
-3.7800e-06,-0.072
-3.7760e-06,0.0448
-3.7720e-06,0.0264
-3.7680e-06,-0.072
-3.7640e-06,0.052
-3.7600e-06,0.0128
-3.7560e-06,-0.0648
-3.7520e-06,0.0624
-3.7480e-06,0.0016
-3.7440e-06,-0.0608
-3.7400e-06,0.0688
-3.7360e-06,-0.0072
-3.7320e-06,-0.0536
-3.7280e-06,0.0712
-3.7240e-06,-0.0184
-3.7200e-06,-0.0464
-3.7160e-06,0.0736
-3.7120e-06,-0.0312
-3.7080e-06,-0.0392
-3.7040e-06,0.0736
-3.7000e-06,-0.0416
-3.6960e-06,-0.0288
-3.6920e-06,0.0768
-3.6880e-06,-0.0496
-3.6840e-06,-0.0192
-3.6800e-06,0.072
-3.6760e-06,-0.0544
-3.6720e-06,-0.008
-3.6680e-06,0.0688
-3.6640e-06,-0.0616
-3.6600e-06,0.0048
-3.6560e-06,0.0592
-3.6520e-06,-0.0688
-3.6480e-06,0.0128
-3.6440e-06,0.0536
-3.6400e-06,-0.0704
-3.6360e-06,0.0256
-3.6320e-06,0.0432
-3.6280e-06,-0.076
-3.6240e-06,0.0352
-3.6200e-06,0.0344
-3.6160e-06,-0.072
-3.6120e-06,0.0464
-3.6080e-06,0.028
-3.6040e-06,-0.0672
-3.6000e-06,0.0536
-3.5960e-06,0.016
-3.5920e-06,-0.068
-3.5880e-06,0.06
-3.5840e-06,0.0024
-3.5800e-06,-0.0648
-3.5760e-06,0.068
-3.5720e-06,-0.0056
-3.5680e-06,-0.0544
-3.5640e-06,0.0712
-3.5600e-06,-0.0184
-3.5560e-06,-0.052
-3.5520e-06,0.0752
-3.5480e-06,-0.0264
-3.5440e-06,-0.0432
-3.5400e-06,0.0712
-3.5360e-06,-0.036
-3.5320e-06,-0.0296
-3.5280e-06,0.072
-3.5240e-06,-0.0472
-3.5200e-06,-0.0232
-3.5160e-06,0.0688
-3.5120e-06,-0.0536
-3.5080e-06,-0.0096
-3.5040e-06,0.068
-3.5000e-06,-0.0608
-3.4960e-06,-0.0008
-3.4920e-06,0.0624
-3.4880e-06,-0.0648
-3.4840e-06,0.0112
-3.4800e-06,0.0568
-3.4760e-06,-0.0712
-3.4720e-06,0.024
-3.4680e-06,0.0464
-3.4640e-06,-0.072
-3.4600e-06,0.036
-3.4560e-06,0.036
-3.4520e-06,-0.0752
-3.4480e-06,0.0456
-3.4440e-06,0.0304
-3.4400e-06,-0.0696
-3.4360e-06,0.0512
-3.4320e-06,0.0152
-3.4280e-06,-0.0688
-3.4240e-06,0.0584
-3.4200e-06,0.0064
-3.4160e-06,-0.064
-3.4120e-06,0.0664
-3.4080e-06,-0.0048
-3.4040e-06,-0.0576
-3.4000e-06,0.0672
-3.3960e-06,-0.0192
-3.3920e-06,-0.052
-3.3880e-06,0.0736
-3.3840e-06,-0.028
-3.3800e-06,-0.0424
-3.3760e-06,0.0728
-3.3720e-06,-0.0352
-3.3680e-06,-0.0336
-3.3640e-06,0.0704
-3.3600e-06,-0.0464
-3.3560e-06,-0.0232
-3.3520e-06,0.072
-3.3480e-06,-0.056
-3.3440e-06,-0.0088
-3.3400e-06,0.0688
-3.3360e-06,-0.0624
-3.3320e-06,-0.0008
-3.3280e-06,0.0632
-3.3240e-06,-0.0664
-3.3200e-06,0.0112
-3.3160e-06,0.056
-3.3120e-06,-0.0696
-3.3080e-06,0.0224
-3.3040e-06,0.0456
-3.3000e-06,-0.0712
-3.2960e-06,0.0312
-3.2920e-06,0.0416
-3.2880e-06,-0.0728
-3.2840e-06,0.0416
-3.2800e-06,0.0272
-3.2760e-06,-0.0688
-3.2720e-06,0.052
-3.2680e-06,0.0144
-3.2640e-06,-0.0688
-3.2600e-06,0.0584
-3.2560e-06,0.004
-3.2520e-06,-0.0664
-3.2480e-06,0.064
-3.2440e-06,-0.0064
-3.2400e-06,-0.0584
-3.2360e-06,0.072
-3.2320e-06,-0.012
-3.2280e-06,-0.0496
-3.2240e-06,0.0736
-3.2200e-06,-0.0232
-3.2160e-06,-0.0432
-3.2120e-06,0.072
-3.2080e-06,-0.032
-3.2040e-06,-0.036
-3.2000e-06,0.0736
-3.1960e-06,-0.0464
-3.1920e-06,-0.0208
-3.1880e-06,0.0696
-3.1840e-06,-0.0528
-3.1800e-06,-0.0112
-3.1760e-06,0.0672
-3.1720e-06,-0.0584
-3.1680e-06,-0.0008
-3.1640e-06,0.0616
-3.1600e-06,-0.064
-3.1560e-06,0.0136
-3.1520e-06,0.0568
-3.1480e-06,-0.0672
-3.1440e-06,0.0216
-3.1400e-06,0.0488
-3.1360e-06,-0.0704
-3.1320e-06,0.0328
-3.1280e-06,0.04
-3.1240e-06,-0.072
-3.1200e-06,0.0432
-3.1160e-06,0.0328
-3.1120e-06,-0.0696
-3.1080e-06,0.0496
-3.1040e-06,0.0184
-3.1000e-06,-0.0696
-3.0960e-06,0.0576
-3.0920e-06,0.0088
-3.0880e-06,-0.0656
-3.0840e-06,0.0648
-3.0800e-06,-0.0008
-3.0760e-06,-0.0592
-3.0720e-06,0.0664
-3.0680e-06,-0.0088
-3.0640e-06,-0.052
-3.0600e-06,0.0712
-3.0560e-06,-0.0232
-3.0520e-06,-0.0456
-3.0480e-06,0.0728
-3.0440e-06,-0.0344
-3.0400e-06,-0.0328
-3.0360e-06,0.076
-3.0320e-06,-0.0424
-3.0280e-06,-0.0256
-3.0240e-06,0.0752
-3.0200e-06,-0.0512
-3.0160e-06,-0.0144
-3.0120e-06,0.0696
-3.0080e-06,-0.0584
-3.0040e-06,-0.0008
-3.0000e-06,0.064
-2.9960e-06,-0.0632
-2.9920e-06,0.0104
-2.9880e-06,0.056
-2.9840e-06,-0.0688
-2.9800e-06,0.0176
-2.9760e-06,0.0496
-2.9720e-06,-0.0696
-2.9680e-06,0.028
-2.9640e-06,0.0408
-2.9600e-06,-0.0736
-2.9560e-06,0.04
-2.9520e-06,0.032
-2.9480e-06,-0.0736
-2.9440e-06,0.0488
-2.9400e-06,0.0192
-2.9360e-06,-0.0696
-2.9320e-06,0.0584
-2.9280e-06,0.0112
-2.9240e-06,-0.0648
-2.9200e-06,0.0624
-2.9160e-06,-0.0032
-2.9120e-06,-0.0608
-2.9080e-06,0.068
-2.9040e-06,-0.012
-2.9000e-06,-0.052
-2.8960e-06,0.0744
-2.8920e-06,-0.02
-2.8880e-06,-0.044
-2.8840e-06,0.0752
-2.8800e-06,-0.0328
-2.8760e-06,-0.0368
-2.8720e-06,0.0728
-2.8680e-06,-0.044
-2.8640e-06,-0.0256
-2.8600e-06,0.0752
-2.8560e-06,-0.0496
-2.8520e-06,-0.0168
-2.8480e-06,0.072
-2.8440e-06,-0.06
-2.8400e-06,-0.0056
-2.8360e-06,0.0632
-2.8320e-06,-0.0672
-2.8280e-06,0.0056
-2.8240e-06,0.0568
-2.8200e-06,-0.0664
-2.8160e-06,0.0208
-2.8120e-06,0.0488
-2.8080e-06,-0.0736
-2.8040e-06,0.0272
-2.8000e-06,0.0408
-2.7960e-06,-0.072
-2.7920e-06,0.0408
-2.7880e-06,0.0344
-2.7840e-06,-0.0712
-2.7800e-06,0.048
-2.7760e-06,0.0216
-2.7720e-06,-0.0712
-2.7680e-06,0.0552
-2.7640e-06,0.0112
-2.7600e-06,-0.0688
-2.7560e-06,0.0624
-2.7520e-06,-0.0008
-2.7480e-06,-0.0576
-2.7440e-06,0.068
-2.7400e-06,-0.008
-2.7360e-06,-0.0536
-2.7320e-06,0.0704
-2.7280e-06,-0.0216
-2.7240e-06,-0.0472
-2.7200e-06,0.0752
-2.7160e-06,-0.032
-2.7120e-06,-0.0352
-2.7080e-06,0.0768
-2.7040e-06,-0.0392
-2.7000e-06,-0.0256
-2.6960e-06,0.072
-2.6920e-06,-0.0488
-2.6880e-06,-0.0168
-2.6840e-06,0.0696
-2.6800e-06,-0.056
-2.6760e-06,-0.0048
-2.6720e-06,0.0664
-2.6680e-06,-0.0608
-2.6640e-06,0.0064
-2.6600e-06,0.0584
-2.6560e-06,-0.0688
-2.6520e-06,0.016
-2.6480e-06,0.0536
-2.6440e-06,-0.0696
-2.6400e-06,0.0256
-2.6360e-06,0.0448
-2.6320e-06,-0.072
-2.6280e-06,0.036
-2.6240e-06,0.032
-2.6200e-06,-0.0712
-2.6160e-06,0.0464
-2.6120e-06,0.0216
-2.6080e-06,-0.0744
-2.6040e-06,0.056
-2.6000e-06,0.0144
-2.5960e-06,-0.0696
-2.5920e-06,0.0608
-2.5880e-06,0.0024
-2.5840e-06,-0.06
-2.5800e-06,0.0656
-2.5760e-06,-0.0088
-2.5720e-06,-0.056
-2.5680e-06,0.072
-2.5640e-06,-0.0192
-2.5600e-06,-0.0464
-2.5560e-06,0.0712
-2.5520e-06,-0.0272
-2.5480e-06,-0.0376
-2.5440e-06,0.0736
-2.5400e-06,-0.0408
-2.5360e-06,-0.0288
-2.5320e-06,0.0728
-2.5280e-06,-0.0456
-2.5240e-06,-0.0184
-2.5200e-06,0.0712
-2.5160e-06,-0.0552
-2.5120e-06,-0.0064
-2.5080e-06,0.064
-2.5040e-06,-0.0632
-2.5000e-06,0.0016
-2.4960e-06,0.0584
-2.4920e-06,-0.0672
-2.4880e-06,0.0128
-2.4840e-06,0.0536
-2.4800e-06,-0.0696
-2.4760e-06,0.028
-2.4720e-06,0.0448
-2.4680e-06,-0.068
-2.4640e-06,0.0368
-2.4600e-06,0.0344
-2.4560e-06,-0.0688
-2.4520e-06,0.0464
-2.4480e-06,0.028
-2.4440e-06,-0.0688
-2.4400e-06,0.052
-2.4360e-06,0.016
-2.4320e-06,-0.0664
-2.4280e-06,0.0576
-2.4240e-06,0.0072
-2.4200e-06,-0.0608
-2.4160e-06,0.0656
-2.4120e-06,-0.0056
-2.4080e-06,-0.0568
-2.4040e-06,0.0712
-2.4000e-06,-0.0152
-2.3960e-06,-0.0472
-2.3920e-06,0.0768
-2.3880e-06,-0.0256
-2.3840e-06,-0.0408
-2.3800e-06,0.0744
-2.3760e-06,-0.0376
-2.3720e-06,-0.0296
-2.3680e-06,0.0736
-2.3640e-06,-0.044
-2.3600e-06,-0.0208
-2.3560e-06,0.068
-2.3520e-06,-0.0568
-2.3480e-06,-0.0112
-2.3440e-06,0.0656
-2.3400e-06,-0.0616
-2.3360e-06,0.0032
-2.3320e-06,0.0624
-2.3280e-06,-0.0648
-2.3240e-06,0.0112
-2.3200e-06,0.056
-2.3160e-06,-0.0664
-2.3120e-06,0.024
-2.3080e-06,0.0472
-2.3040e-06,-0.072
-2.3000e-06,0.0352
-2.2960e-06,0.0408
-2.2920e-06,-0.0728
-2.2880e-06,0.0472
-2.2840e-06,0.0256
-2.2800e-06,-0.0696
-2.2760e-06,0.052
-2.2720e-06,0.0144
-2.2680e-06,-0.064
-2.2640e-06,0.06
-2.2600e-06,0.0048
-2.2560e-06,-0.0624
-2.2520e-06,0.0632
-2.2480e-06,-0.0056
-2.2440e-06,-0.0568
-2.2400e-06,0.0688
-2.2360e-06,-0.0184
-2.2320e-06,-0.0504
-2.2280e-06,0.0712
-2.2240e-06,-0.0272
-2.2200e-06,-0.0416
-2.2160e-06,0.0752
-2.2120e-06,-0.0344
-2.2080e-06,-0.0296
-2.2040e-06,0.076
-2.2000e-06,-0.0448
-2.1960e-06,-0.0224
-2.1920e-06,0.0728
-2.1880e-06,-0.0504
-2.1840e-06,-0.012
-2.1800e-06,0.0664
-2.1760e-06,-0.06
-2.1720e-06,0
-2.1680e-06,0.0616
-2.1640e-06,-0.0632
-2.1600e-06,0.012
-2.1560e-06,0.0552
-2.1520e-06,-0.0712
-2.1480e-06,0.02
-2.1440e-06,0.0456
-2.1400e-06,-0.0672
-2.1360e-06,0.0328
-2.1320e-06,0.036
-2.1280e-06,-0.0712
-2.1240e-06,0.0408
-2.1200e-06,0.0288
-2.1160e-06,-0.0672
-2.1120e-06,0.0536
-2.1080e-06,0.02
-2.1040e-06,-0.0696
-2.1000e-06,0.06
-2.0960e-06,0.0072
-2.0920e-06,-0.0648
-2.0880e-06,0.064
-2.0840e-06,-0.0008
-2.0800e-06,-0.0568
-2.0760e-06,0.068
-2.0720e-06,-0.0152
-2.0680e-06,-0.0536
-2.0640e-06,0.0736
-2.0600e-06,-0.0256
-2.0560e-06,-0.0416
-2.0520e-06,0.0736
-2.0480e-06,-0.0352
-2.0440e-06,-0.032
-2.0400e-06,0.0744
-2.0360e-06,-0.0416
-2.0320e-06,-0.0256
-2.0280e-06,0.0688
-2.0240e-06,-0.0504
-2.0200e-06,-0.012
-2.0160e-06,0.0696
-2.0120e-06,-0.0568
-2.0080e-06,-0.0048
-2.0040e-06,0.0616
-2.0000e-06,-0.0632
-1.9960e-06,0.0128
-1.9920e-06,0.056
-1.9880e-06,-0.0696
-1.9840e-06,0.0216
-1.9800e-06,0.0504
-1.9760e-06,-0.0696
-1.9720e-06,0.028
-1.9680e-06,0.0392
-1.9640e-06,-0.0712
-1.9600e-06,0.0416
-1.9560e-06,0.0304
-1.9520e-06,-0.072
-1.9480e-06,0.0512
-1.9440e-06,0.02
-1.9400e-06,-0.068
-1.9360e-06,0.0584
-1.9320e-06,0.008
-1.9280e-06,-0.0632
-1.9240e-06,0.064
-1.9200e-06,0
-1.9160e-06,-0.0616
-1.9120e-06,0.068
-1.9080e-06,-0.0104
-1.9040e-06,-0.0504
-1.9000e-06,0.0712
-1.8960e-06,-0.024
-1.8920e-06,-0.0448
-1.8880e-06,0.0744
-1.8840e-06,-0.0344
-1.8800e-06,-0.0336
-1.8760e-06,0.0752
-1.8720e-06,-0.0416
-1.8680e-06,-0.028
-1.8640e-06,0.072
-1.8600e-06,-0.0512
-1.8560e-06,-0.0144
-1.8520e-06,0.0672
-1.8480e-06,-0.0592
-1.8440e-06,0
-1.8400e-06,0.0632
-1.8360e-06,-0.0632
-1.8320e-06,0.008
-1.8280e-06,0.0568
-1.8240e-06,-0.0704
-1.8200e-06,0.0192
-1.8160e-06,0.0504
-1.8120e-06,-0.0664
-1.8080e-06,0.0312
-1.8040e-06,0.0408
-1.8000e-06,-0.0728
-1.7960e-06,0.0392
-1.7920e-06,0.0312
-1.7880e-06,-0.0696
-1.7840e-06,0.0456
-1.7800e-06,0.0184
-1.7760e-06,-0.072
-1.7720e-06,0.0536
-1.7680e-06,0.0104
-1.7640e-06,-0.064
-1.7600e-06,0.064
-1.7560e-06,-0.0016
-1.7520e-06,-0.0584
-1.7480e-06,0.0688
-1.7440e-06,-0.0112
-1.7400e-06,-0.0528
-1.7360e-06,0.0712
-1.7320e-06,-0.0224
-1.7280e-06,-0.0448
-1.7240e-06,0.0736
-1.7200e-06,-0.0344
-1.7160e-06,-0.0368
-1.7120e-06,0.0704
-1.7080e-06,-0.0432
-1.7040e-06,-0.0256
-1.7000e-06,0.0736
-1.6960e-06,-0.0504
-1.6920e-06,-0.012
-1.6880e-06,0.0712
-1.6840e-06,-0.0584
-1.6800e-06,-0.0064
-1.6760e-06,0.0648
-1.6720e-06,-0.0616
-1.6680e-06,0.0064
-1.6640e-06,0.0552
-1.6600e-06,-0.0672
-1.6560e-06,0.0192
-1.6520e-06,0.052
-1.6480e-06,-0.0704
-1.6440e-06,0.0264
-1.6400e-06,0.0456
-1.6360e-06,-0.0752
-1.6320e-06,0.036
-1.6280e-06,0.0328
-1.6240e-06,-0.0712
-1.6200e-06,0.0456
-1.6160e-06,0.0264
-1.6120e-06,-0.0728
-1.6080e-06,0.0552
-1.6040e-06,0.0152
-1.6000e-06,-0.0672
-1.5960e-06,0.0608
-1.5920e-06,0.0016
-1.5880e-06,-0.0624
-1.5840e-06,0.0648
-1.5800e-06,-0.008
-1.5760e-06,-0.052
-1.5720e-06,0.0728
-1.5680e-06,-0.0176
-1.5640e-06,-0.0456
-1.5600e-06,0.0736
-1.5560e-06,-0.0312
-1.5520e-06,-0.0368
-1.5480e-06,0.072
-1.5440e-06,-0.0376
-1.5400e-06,-0.0296
-1.5360e-06,0.0704
-1.5320e-06,-0.048
-1.5280e-06,-0.0192
-1.5240e-06,0.0688
-1.5200e-06,-0.056
-1.5160e-06,-0.0048
-1.5120e-06,0.0664
-1.5080e-06,-0.0608
-1.5040e-06,0.004
-1.5000e-06,0.0584
-1.4960e-06,-0.0672
-1.4920e-06,0.0152
-1.4880e-06,0.0488
-1.4840e-06,-0.072
-1.4800e-06,0.0256
-1.4760e-06,0.0408
-1.4720e-06,-0.072
-1.4680e-06,0.0368
-1.4640e-06,0.0344
-1.4600e-06,-0.0704
-1.4560e-06,0.0448
-1.4520e-06,0.0264
-1.4480e-06,-0.0688
-1.4440e-06,0.056
-1.4400e-06,0.0104
-1.4360e-06,-0.0656
-1.4320e-06,0.06
-1.4280e-06,0.0056
-1.4240e-06,-0.0592
-1.4200e-06,0.0664
-1.4160e-06,-0.0064
-1.4120e-06,-0.0544
-1.4080e-06,0.0696
-1.4040e-06,-0.0144
-1.4000e-06,-0.0472
-1.3960e-06,0.0712
-1.3920e-06,-0.0272
-1.3880e-06,-0.0392
-1.3840e-06,0.0736
-1.3800e-06,-0.0408
-1.3760e-06,-0.0256
-1.3720e-06,0.0744
-1.3680e-06,-0.0456
-1.3640e-06,-0.0216
-1.3600e-06,0.0696
-1.3560e-06,-0.0528
-1.3520e-06,-0.008
-1.3480e-06,0.0632
-1.3440e-06,-0.064
-1.3400e-06,0.004
-1.3360e-06,0.0584
-1.3320e-06,-0.0672
-1.3280e-06,0.0128
-1.3240e-06,0.0536
-1.3200e-06,-0.0656
-1.3160e-06,0.0232
-1.3120e-06,0.0456
-1.3080e-06,-0.0736
-1.3040e-06,0.0336
-1.3000e-06,0.0368
-1.2960e-06,-0.072
-1.2920e-06,0.0432
-1.2880e-06,0.0272
-1.2840e-06,-0.0704
-1.2800e-06,0.0528
-1.2760e-06,0.0144
-1.2720e-06,-0.0672
-1.2680e-06,0.0576
-1.2640e-06,0.0056
-1.2600e-06,-0.0632
-1.2560e-06,0.0656
-1.2520e-06,-0.008
-1.2480e-06,-0.056
-1.2440e-06,0.0696
-1.2400e-06,-0.0144
-1.2360e-06,-0.0456
-1.2320e-06,0.0744
-1.2280e-06,-0.0256
-1.2240e-06,-0.04
-1.2200e-06,0.0736
-1.2160e-06,-0.0376
-1.2120e-06,-0.0312
-1.2080e-06,0.0744
-1.2040e-06,-0.0488
-1.2000e-06,-0.024
-1.1960e-06,0.0704
-1.1920e-06,-0.0528
-1.1880e-06,-0.0088
-1.1840e-06,0.0664
-1.1800e-06,-0.06
-1.1760e-06,0.0016
-1.1720e-06,0.064
-1.1680e-06,-0.0664
-1.1640e-06,0.0136
-1.1600e-06,0.0536
-1.1560e-06,-0.0648
-1.1520e-06,0.02
-1.1480e-06,0.0488
-1.1440e-06,-0.0712
-1.1400e-06,0.0328
-1.1360e-06,0.0376
-1.1320e-06,-0.0712
-1.1280e-06,0.0416
-1.1240e-06,0.0264
-1.1200e-06,-0.0736
-1.1160e-06,0.0496
-1.1120e-06,0.0176
-1.1080e-06,-0.0664
-1.1040e-06,0.0616
-1.1000e-06,0.0072
-1.0960e-06,-0.064
-1.0920e-06,0.0664
-1.0880e-06,-0.0024
-1.0840e-06,-0.0568
-1.0800e-06,0.0672
-1.0760e-06,-0.0152
-1.0720e-06,-0.052
-1.0680e-06,0.0704
-1.0640e-06,-0.0272
-1.0600e-06,-0.0424
-1.0560e-06,0.0712
-1.0520e-06,-0.0352
-1.0480e-06,-0.0336
-1.0440e-06,0.0712
-1.0400e-06,-0.0432
-1.0360e-06,-0.0232
-1.0320e-06,0.0712
-1.0280e-06,-0.0504
-1.0240e-06,-0.0104
-1.0200e-06,0.0656
-1.0160e-06,-0.0616
-1.0120e-06,-0.0008
-1.0080e-06,0.0632
-1.0040e-06,-0.0664
-1.0000e-06,0.012
-9.9600e-07,0.0552
-9.9200e-07,-0.0672
-9.8800e-07,0.02
-9.8400e-07,0.0496
-9.8000e-07,-0.0704
-9.7600e-07,0.0312
-9.7200e-07,0.04
-9.6800e-07,-0.072
-9.6400e-07,0.04
-9.6000e-07,0.0288
-9.5600e-07,-0.0704
-9.5200e-07,0.0488
-9.4800e-07,0.0184
-9.4400e-07,-0.0696
-9.4000e-07,0.0576
-9.3600e-07,0.0104
-9.3200e-07,-0.0672
-9.2800e-07,0.0616
-9.2400e-07,-0.0008
-9.2000e-07,-0.0584
-9.1600e-07,0.0672
-9.1200e-07,-0.0136
-9.0800e-07,-0.0488
-9.0400e-07,0.0688
-9.0000e-07,-0.0272
-8.9600e-07,-0.0424
-8.9200e-07,0.0736
-8.8800e-07,-0.0312
-8.8400e-07,-0.0312
-8.8000e-07,0.0736
-8.7600e-07,-0.0448
-8.7200e-07,-0.0232
-8.6800e-07,0.0664
-8.6400e-07,-0.0504
-8.6000e-07,-0.012
-8.5600e-07,0.0688
-8.5200e-07,-0.056
-8.4800e-07,-0.0008
-8.4400e-07,0.0632
-8.4000e-07,-0.0648
-8.3600e-07,0.0112
-8.3200e-07,0.0552
-8.2800e-07,-0.0672
-8.2400e-07,0.0208
-8.2000e-07,0.0496
-8.1600e-07,-0.068
-8.1200e-07,0.0296
-8.0800e-07,0.0424
-8.0400e-07,-0.0704
-8.0000e-07,0.0408
-7.9600e-07,0.032
-7.9200e-07,-0.072
-7.8800e-07,0.0488
-7.8400e-07,0.0192
-7.8000e-07,-0.0672
-7.7600e-07,0.0584
-7.7200e-07,0.0096
-7.6800e-07,-0.064
-7.6400e-07,0.0632
-7.6000e-07,0.0008
-7.5600e-07,-0.0584
-7.5200e-07,0.0712
-7.4800e-07,-0.0104
-7.4400e-07,-0.052
-7.4000e-07,0.0712
-7.3600e-07,-0.02
-7.3200e-07,-0.0432
-7.2800e-07,0.0744
-7.2400e-07,-0.0344
-7.2000e-07,-0.0352
-7.1600e-07,0.0712
-7.1200e-07,-0.0448
-7.0800e-07,-0.0248
-7.0400e-07,0.0688
-7.0000e-07,-0.0496
-6.9600e-07,-0.0136
-6.9200e-07,0.068
-6.8800e-07,-0.0568
-6.8400e-07,-0.0032
-6.8000e-07,0.0648
-6.7600e-07,-0.0624
-6.7200e-07,0.0056
-6.6800e-07,0.0568
-6.6400e-07,-0.0656
-6.6000e-07,0.0176
-6.5600e-07,0.0472
-6.5200e-07,-0.0688
-6.4800e-07,0.0304
-6.4400e-07,0.04
-6.4000e-07,-0.072
-6.3600e-07,0.0368
-6.3200e-07,0.0328
-6.2800e-07,-0.0728
-6.2400e-07,0.048
-6.2000e-07,0.0224
-6.1600e-07,-0.0664
-6.1200e-07,0.056
-6.0800e-07,0.0072
-6.0400e-07,-0.0672
-6.0000e-07,0.0624
-5.9600e-07,0
-5.9200e-07,-0.0616
-5.8800e-07,0.068
-5.8400e-07,-0.008
-5.8000e-07,-0.0536
-5.7600e-07,0.0688
-5.7200e-07,-0.0216
-5.6800e-07,-0.044
-5.6400e-07,0.0696
-5.6000e-07,-0.0304
-5.5600e-07,-0.036
-5.5200e-07,0.0744
-5.4800e-07,-0.04
-5.4400e-07,-0.0264
-5.4000e-07,0.0744
-5.3600e-07,-0.0456
-5.3200e-07,-0.0176
-5.2800e-07,0.0696
-5.2400e-07,-0.0568
-5.2000e-07,-0.0024
-5.1600e-07,0.0656
-5.1200e-07,-0.0632
-5.0800e-07,0.0064
-5.0400e-07,0.0608
-5.0000e-07,-0.068
-4.9600e-07,0.0192
-4.9200e-07,0.0536
-4.8800e-07,-0.0704
-4.8400e-07,0.0256
-4.8000e-07,0.0424
-4.7600e-07,-0.0744
-4.7200e-07,0.0368
-4.6800e-07,0.0344
-4.6400e-07,-0.0704
-4.6000e-07,0.0456
-4.5600e-07,0.0232
-4.5200e-07,-0.0696
-4.4800e-07,0.0552
-4.4400e-07,0.0128
-4.4000e-07,-0.0656
-4.3600e-07,0.0616
-4.3200e-07,0.0048
-4.2800e-07,-0.0624
-4.2400e-07,0.0672
-4.2000e-07,-0.0088
-4.1600e-07,-0.0552
-4.1200e-07,0.072
-4.0800e-07,-0.02
-4.0400e-07,-0.0464
-4.0000e-07,0.0728
-3.9600e-07,-0.0312
-3.9200e-07,-0.0352
-3.8800e-07,0.072
-3.8400e-07,-0.0384
-3.8000e-07,-0.0272
-3.7600e-07,0.072
-3.7200e-07,-0.048
-3.6800e-07,-0.0168
-3.6400e-07,0.0712
-3.6000e-07,-0.0552
-3.5600e-07,-0.0056
-3.5200e-07,0.0632
-3.4800e-07,-0.0616
-3.4400e-07,0.0048
-3.4000e-07,0.0584
-3.3600e-07,-0.064
-3.3200e-07,0.0128
-3.2800e-07,0.0528
-3.2400e-07,-0.068
-3.2000e-07,0.0264
-3.1600e-07,0.0432
-3.1200e-07,-0.0704
-3.0800e-07,0.0376
-3.0400e-07,0.0336
-3.0000e-07,-0.072
-2.9600e-07,0.0432
-2.9200e-07,0.0248
-2.8800e-07,-0.068
-2.8400e-07,0.052
-2.8000e-07,0.0144
-2.7600e-07,-0.0672
-2.7200e-07,0.0608
-2.6800e-07,0
-2.6400e-07,-0.0616
-2.6000e-07,0.064
-2.5600e-07,-0.004
-2.5200e-07,-0.0536
-2.4800e-07,0.0696
-2.4400e-07,-0.0152
-2.4000e-07,-0.0512
-2.3600e-07,0.0688
-2.3200e-07,-0.0272
-2.2800e-07,-0.0368
-2.2400e-07,0.0728
-2.2000e-07,-0.0368
-2.1600e-07,-0.0304
-2.1200e-07,0.0712
-2.0800e-07,-0.048
-2.0400e-07,-0.02
-2.0000e-07,0.072
-1.9600e-07,-0.0528
-1.9200e-07,-0.0088
-1.8800e-07,0.0632
-1.8400e-07,-0.0568
-1.8000e-07,0.004
-1.7600e-07,0.06
-1.7200e-07,-0.0672
-1.6800e-07,0.0096
-1.6400e-07,0.0528
-1.6000e-07,-0.068
-1.5600e-07,0.0216
-1.5200e-07,0.0472
-1.4800e-07,-0.072
-1.4400e-07,0.0328
-1.4000e-07,0.0368
-1.3600e-07,-0.0736
-1.3200e-07,0.0456
-1.2800e-07,0.0272
-1.2400e-07,-0.0704
-1.2000e-07,0.0528
-1.1600e-07,0.0168
-1.1200e-07,-0.0696
-1.0800e-07,0.0584
-1.0400e-07,0.0056
-1.0000e-07,-0.0608
-9.6000e-08,0.0672
-9.2000e-08,-0.0048
-8.8000e-08,-0.0576
-8.4000e-08,0.0696
-8.0000e-08,-0.016
-7.6000e-08,-0.0528
-7.2000e-08,0.0712
-6.8000e-08,-0.028
-6.4000e-08,-0.04
-6.0000e-08,0.0736
-5.6000e-08,-0.036
-5.2000e-08,-0.0312
-4.8000e-08,0.0712
-4.4000e-08,-0.044
-4.0000e-08,-0.0208
-3.6000e-08,0.0688
-3.2000e-08,-0.0552
-2.8000e-08,-0.012
-2.4000e-08,0.0672
-2.0000e-08,-0.0624
-1.6000e-08,0.0008
-1.2000e-08,0.0616
-8.0000e-09,-0.064
-4.0000e-09,0.012
-0.0000e+00,0.056
4.0000e-09,-0.068
8.0000e-09,0.0264
1.2000e-08,0.0464
1.6000e-08,-0.0704
2.0000e-08,0.0312
2.4000e-08,0.0368
2.8000e-08,-0.0688
3.2000e-08,0.0424
3.6000e-08,0.0272
4.0000e-08,-0.0712
4.4000e-08,0.0496
4.8000e-08,0.0192
5.2000e-08,-0.0656
5.6000e-08,0.0584
6.0000e-08,0.0072
6.4000e-08,-0.0648
6.8000e-08,0.0656
7.2000e-08,-0.0008
7.6000e-08,-0.0576
8.0000e-08,0.0672
8.4000e-08,-0.0144
8.8000e-08,-0.0504
9.2000e-08,0.068
9.6000e-08,-0.0256
1.0000e-07,-0.0416
1.0400e-07,0.0736
1.0800e-07,-0.0344
1.1200e-07,-0.0312
1.1600e-07,0.072
1.2000e-07,-0.0424
1.2400e-07,-0.0232
1.2800e-07,0.0736
1.3200e-07,-0.052
1.3600e-07,-0.0136
1.4000e-07,0.0696
1.4400e-07,-0.0592
1.4800e-07,0.0016
1.5200e-07,0.064
1.5600e-07,-0.064
1.6000e-07,0.0072
1.6400e-07,0.056
1.6800e-07,-0.0664
1.7200e-07,0.0184
1.7600e-07,0.0456
1.8000e-07,-0.0704
1.8400e-07,0.0328
1.8800e-07,0.04
1.9200e-07,-0.0712
1.9600e-07,0.0416
2.0000e-07,0.0296
2.0400e-07,-0.0704
2.0800e-07,0.0536
2.1200e-07,0.0216
2.1600e-07,-0.0696
2.2000e-07,0.056
2.2400e-07,0.012
2.2800e-07,-0.0672
2.3200e-07,0.0648
2.3600e-07,-0.0032
2.4000e-07,-0.0568
2.4400e-07,0.0712
2.4800e-07,-0.0128
2.5200e-07,-0.0504
2.5600e-07,0.072
2.6000e-07,-0.024
2.6400e-07,-0.0408
2.6800e-07,0.0712
2.7200e-07,-0.0352
2.7600e-07,-0.0344
2.8000e-07,0.072
2.8400e-07,-0.0416
2.8800e-07,-0.0208
2.9200e-07,0.0736
2.9600e-07,-0.0504
3.0000e-07,-0.0152
3.0400e-07,0.0672
3.0800e-07,-0.056
3.1200e-07,0
3.1600e-07,0.0616
3.2000e-07,-0.0632
3.2400e-07,0.0096
3.2800e-07,0.0552
3.3200e-07,-0.0672
3.3600e-07,0.0184
3.4000e-07,0.0472
3.4400e-07,-0.072
3.4800e-07,0.028
3.5200e-07,0.0432
3.5600e-07,-0.0712
3.6000e-07,0.0416
3.6400e-07,0.0312
3.6800e-07,-0.0728
3.7200e-07,0.0536
3.7600e-07,0.02
3.8000e-07,-0.0688
3.8400e-07,0.0568
3.8800e-07,0.0096
3.9200e-07,-0.064
3.9600e-07,0.0624
4.0000e-07,-0.0032
4.0400e-07,-0.0608
4.0800e-07,0.0672
4.1200e-07,-0.0104
4.1600e-07,-0.052
4.2000e-07,0.0712
4.2400e-07,-0.024
4.2800e-07,-0.0416
4.3200e-07,0.0712
4.3600e-07,-0.0296
4.4000e-07,-0.036
4.4400e-07,0.0744
4.4800e-07,-0.0392
4.5200e-07,-0.0248
4.5600e-07,0.072
4.6000e-07,-0.044
4.6400e-07,-0.0176
4.6800e-07,0.0712
4.7200e-07,-0.056
4.7600e-07,-0.0072
4.8000e-07,0.0648
4.8400e-07,-0.06
4.8800e-07,0.004
4.9200e-07,0.0584
4.9600e-07,-0.0672
5.0000e-07,0.0168
5.0400e-07,0.0528
5.0800e-07,-0.0712
5.1200e-07,0.0264
5.1600e-07,0.0424
5.2000e-07,-0.0696
5.2400e-07,0.0384
5.2800e-07,0.0328
5.3200e-07,-0.0688
5.3600e-07,0.0488
5.4000e-07,0.0224
5.4400e-07,-0.0712
5.4800e-07,0.052
5.5200e-07,0.0112
5.5600e-07,-0.064
5.6000e-07,0.0608
5.6400e-07,-0.0016
5.6800e-07,-0.0592
5.7200e-07,0.0648
5.7600e-07,-0.008
5.8000e-07,-0.0544
5.8400e-07,0.0696
5.8800e-07,-0.02
5.9200e-07,-0.0456
5.9600e-07,0.072
6.0000e-07,-0.0328
6.0400e-07,-0.0376
6.0800e-07,0.0712
6.1200e-07,-0.0368
6.1600e-07,-0.028
6.2000e-07,0.0704
6.2400e-07,-0.0488
6.2800e-07,-0.0184
6.3200e-07,0.0688
6.3600e-07,-0.056
6.4000e-07,-0.0056
6.4400e-07,0.064
6.4800e-07,-0.0592
6.5200e-07,0.0048
6.5600e-07,0.0584
6.6000e-07,-0.068
6.6400e-07,0.016
6.6800e-07,0.0496
6.7200e-07,-0.072
6.7600e-07,0.0224
6.8000e-07,0.0424
6.8400e-07,-0.0688
6.8800e-07,0.0368
6.9200e-07,0.0368
6.9600e-07,-0.072
7.0000e-07,0.0472
7.0400e-07,0.024
7.0800e-07,-0.0672
7.1200e-07,0.0512
7.1600e-07,0.012
7.2000e-07,-0.064
7.2400e-07,0.0616
7.2800e-07,0.0024
7.3200e-07,-0.0616
7.3600e-07,0.0648
7.4000e-07,-0.008
7.4400e-07,-0.0576
7.4800e-07,0.0712
7.5200e-07,-0.0168
7.5600e-07,-0.0472
7.6000e-07,0.0736
7.6400e-07,-0.0288
7.6800e-07,-0.04
7.7200e-07,0.0744
7.7600e-07,-0.0392
7.8000e-07,-0.0296
7.8400e-07,0.0736
7.8800e-07,-0.0464
7.9200e-07,-0.0184
7.9600e-07,0.0688
8.0000e-07,-0.0576
8.0400e-07,-0.008
8.0800e-07,0.064
8.1200e-07,-0.0624
8.1600e-07,0.0032
8.2000e-07,0.0592
8.2400e-07,-0.0664
8.2800e-07,0.0128
8.3200e-07,0.0528
8.3600e-07,-0.0672
8.4000e-07,0.0208
8.4400e-07,0.0456
8.4800e-07,-0.0696
8.5200e-07,0.0352
8.5600e-07,0.0376
8.6000e-07,-0.072
8.6400e-07,0.0432
8.6800e-07,0.0256
8.7200e-07,-0.068
8.7600e-07,0.0528
8.8000e-07,0.0176
8.8400e-07,-0.0656
8.8800e-07,0.0592
8.9200e-07,0.0016
8.9600e-07,-0.0632
9.0000e-07,0.0664
9.0400e-07,-0.0064
9.0800e-07,-0.0568
9.1200e-07,0.0704
9.1600e-07,-0.0144
9.2000e-07,-0.0472
9.2400e-07,0.068
9.2800e-07,-0.0256
9.3200e-07,-0.0432
9.3600e-07,0.0752
9.4000e-07,-0.0368
9.4400e-07,-0.0288
9.4800e-07,0.0712
9.5200e-07,-0.0464
9.5600e-07,-0.0248
9.6000e-07,0.0736
9.6400e-07,-0.0544
9.6800e-07,-0.0088
9.7200e-07,0.0664
9.7600e-07,-0.064
9.8000e-07,0.0008
9.8400e-07,0.0624
9.8800e-07,-0.064
9.9200e-07,0.0112
9.9600e-07,0.0528
1.0000e-06,-0.0704
1.0040e-06,0.0224
1.0080e-06,0.0488
1.0120e-06,-0.068
1.0160e-06,0.0352
1.0200e-06,0.0352
1.0240e-06,-0.0704
1.0280e-06,0.0432
1.0320e-06,0.028
1.0360e-06,-0.0712
1.0400e-06,0.0512
1.0440e-06,0.0176
1.0480e-06,-0.0672
1.0520e-06,0.0584
1.0560e-06,0.0072
1.0600e-06,-0.0648
1.0640e-06,0.0632
1.0680e-06,-0.0024
1.0720e-06,-0.0584
1.0760e-06,0.0672
1.0800e-06,-0.0152
1.0840e-06,-0.0496
1.0880e-06,0.068
1.0920e-06,-0.0248
1.0960e-06,-0.0416
1.1000e-06,0.0736
1.1040e-06,-0.036
1.1080e-06,-0.0344
1.1120e-06,0.0712
1.1160e-06,-0.0408
1.1200e-06,-0.02
1.1240e-06,0.0704
1.1280e-06,-0.0512
1.1320e-06,-0.0088
1.1360e-06,0.0672
1.1400e-06,-0.0568
1.1440e-06,-0.0032
1.1480e-06,0.064
1.1520e-06,-0.0624
1.1560e-06,0.0096
1.1600e-06,0.0536
1.1640e-06,-0.0696
1.1680e-06,0.0256
1.1720e-06,0.0456
1.1760e-06,-0.0704
1.1800e-06,0.032
1.1840e-06,0.0424
1.1880e-06,-0.0704
1.1920e-06,0.0424
1.1960e-06,0.0304
1.2000e-06,-0.0712
1.2040e-06,0.052
1.2080e-06,0.0176
1.2120e-06,-0.0688
1.2160e-06,0.06
1.2200e-06,0.0064
1.2240e-06,-0.0648
1.2280e-06,0.0624
1.2320e-06,-0.0024
1.2360e-06,-0.0592
1.2400e-06,0.0704
1.2440e-06,-0.0128
1.2480e-06,-0.0504
1.2520e-06,0.0704
1.2560e-06,-0.0232
1.2600e-06,-0.0424
1.2640e-06,0.072
1.2680e-06,-0.0336
1.2720e-06,-0.0344
1.2760e-06,0.0752
1.2800e-06,-0.0424
1.2840e-06,-0.024
1.2880e-06,0.0736
1.2920e-06,-0.0528
1.2960e-06,-0.0128
1.3000e-06,0.0648
1.3040e-06,-0.0592
1.3080e-06,-0.0032
1.3120e-06,0.0592
1.3160e-06,-0.064
1.3200e-06,0.0088
1.3240e-06,0.0552
1.3280e-06,-0.068
1.3320e-06,0.0216
1.3360e-06,0.0456
1.3400e-06,-0.0704
1.3440e-06,0.028
1.3480e-06,0.0416
1.3520e-06,-0.0704
1.3560e-06,0.0416
1.3600e-06,0.0288
1.3640e-06,-0.0704
1.3680e-06,0.0488
1.3720e-06,0.0224
1.3760e-06,-0.0696
1.3800e-06,0.0552
1.3840e-06,0.0088
1.3880e-06,-0.0632
1.3920e-06,0.0608
1.3960e-06,0
1.4000e-06,-0.06
1.4040e-06,0.0672
1.4080e-06,-0.0128
1.4120e-06,-0.0504
1.4160e-06,0.0696
1.4200e-06,-0.0216
1.4240e-06,-0.044
1.4280e-06,0.0744
1.4320e-06,-0.0336
1.4360e-06,-0.0376
1.4400e-06,0.0728
1.4440e-06,-0.0408
1.4480e-06,-0.0272
1.4520e-06,0.0704
1.4560e-06,-0.0504
1.4600e-06,-0.016
1.4640e-06,0.0704
1.4680e-06,-0.0584
1.4720e-06,-0.004
1.4760e-06,0.0648
1.4800e-06,-0.0616
1.4840e-06,0.0064
1.4880e-06,0.0576
1.4920e-06,-0.064
1.4960e-06,0.0176
1.5000e-06,0.0504
1.5040e-06,-0.0704
1.5080e-06,0.0272
1.5120e-06,0.0392
1.5160e-06,-0.0688
1.5200e-06,0.0408
1.5240e-06,0.0328
1.5280e-06,-0.0728
1.5320e-06,0.0456
1.5360e-06,0.0224
1.5400e-06,-0.0712
1.5440e-06,0.0552
1.5480e-06,0.0144
1.5520e-06,-0.0656
1.5560e-06,0.0608
1.5600e-06,0
1.5640e-06,-0.0592
1.5680e-06,0.068
1.5720e-06,-0.012
1.5760e-06,-0.0536
1.5800e-06,0.0712
1.5840e-06,-0.0208
1.5880e-06,-0.044
1.5920e-06,0.0696
1.5960e-06,-0.032
1.6000e-06,-0.0376
1.6040e-06,0.0712
1.6080e-06,-0.04
1.6120e-06,-0.0256
1.6160e-06,0.0728
1.6200e-06,-0.048
1.6240e-06,-0.0152
1.6280e-06,0.068
1.6320e-06,-0.0528
1.6360e-06,-0.0016
1.6400e-06,0.0648
1.6440e-06,-0.0616
1.6480e-06,0.0072
1.6520e-06,0.0568
1.6560e-06,-0.0688
1.6600e-06,0.0152
1.6640e-06,0.0536
1.6680e-06,-0.068
1.6720e-06,0.0304
1.6760e-06,0.0432
1.6800e-06,-0.0728
1.6840e-06,0.0368
1.6880e-06,0.0336
1.6920e-06,-0.0712
1.6960e-06,0.0504
1.7000e-06,0.0272
1.7040e-06,-0.0696
1.7080e-06,0.0544
1.7120e-06,0.012
1.7160e-06,-0.0656
1.7200e-06,0.0592
1.7240e-06,0.0008
1.7280e-06,-0.0632
1.7320e-06,0.064
1.7360e-06,-0.012
1.7400e-06,-0.0536
1.7440e-06,0.0712
1.7480e-06,-0.0152
1.7520e-06,-0.0488
1.7560e-06,0.072
1.7600e-06,-0.0296
1.7640e-06,-0.036
1.7680e-06,0.0728
1.7720e-06,-0.036
1.7760e-06,-0.0256
1.7800e-06,0.072
1.7840e-06,-0.0496
1.7880e-06,-0.0168
1.7920e-06,0.0712
1.7960e-06,-0.0552
1.8000e-06,-0.008
1.8040e-06,0.0648
1.8080e-06,-0.0632
1.8120e-06,0.004
1.8160e-06,0.0584
1.8200e-06,-0.0688
1.8240e-06,0.016
1.8280e-06,0.052
1.8320e-06,-0.0696
1.8360e-06,0.0248
1.8400e-06,0.0464
1.8440e-06,-0.072
1.8480e-06,0.0352
1.8520e-06,0.0328
1.8560e-06,-0.0688
1.8600e-06,0.0456
1.8640e-06,0.0224
1.8680e-06,-0.068
1.8720e-06,0.0544
1.8760e-06,0.0144
1.8800e-06,-0.0664
1.8840e-06,0.0608
1.8880e-06,0.0016
1.8920e-06,-0.06
1.8960e-06,0.068
1.9000e-06,-0.008
1.9040e-06,-0.0536
1.9080e-06,0.0712
1.9120e-06,-0.02
1.9160e-06,-0.0496
1.9200e-06,0.072
1.9240e-06,-0.0288
1.9280e-06,-0.0384
1.9320e-06,0.0736
1.9360e-06,-0.0392
1.9400e-06,-0.0312
1.9440e-06,0.0712
1.9480e-06,-0.0456
1.9520e-06,-0.0176
1.9560e-06,0.0728
1.9600e-06,-0.0552
1.9640e-06,-0.0088
1.9680e-06,0.0648
1.9720e-06,-0.0632
1.9760e-06,0.0024
1.9800e-06,0.06
1.9840e-06,-0.0664
1.9880e-06,0.0128
1.9920e-06,0.0528
1.9960e-06,-0.0688
2.0000e-06,0.0256
2.0040e-06,0.0464
2.0080e-06,-0.0712
2.0120e-06,0.0328
2.0160e-06,0.0352
2.0200e-06,-0.072
2.0240e-06,0.0472
2.0280e-06,0.0256
2.0320e-06,-0.0712
2.0360e-06,0.0544
2.0400e-06,0.0176
2.0440e-06,-0.0648
2.0480e-06,0.0584
2.0520e-06,0.0032
2.0560e-06,-0.0664
2.0600e-06,0.0664
2.0640e-06,-0.008
2.0680e-06,-0.0552
2.0720e-06,0.0688
2.0760e-06,-0.0176
2.0800e-06,-0.0472
2.0840e-06,0.0712
2.0880e-06,-0.0264
2.0920e-06,-0.044
2.0960e-06,0.072
2.1000e-06,-0.0376
2.1040e-06,-0.0288
2.1080e-06,0.072
2.1120e-06,-0.0448
2.1160e-06,-0.02
2.1200e-06,0.072
2.1240e-06,-0.0544
2.1280e-06,-0.0088
2.1320e-06,0.0656
2.1360e-06,-0.0616
2.1400e-06,0.0024
2.1440e-06,0.0616
2.1480e-06,-0.064
2.1520e-06,0.0096
2.1560e-06,0.0552
2.1600e-06,-0.0688
2.1640e-06,0.024
2.1680e-06,0.048
2.1720e-06,-0.072
2.1760e-06,0.0328
2.1800e-06,0.0352
2.1840e-06,-0.072
2.1880e-06,0.0424
2.1920e-06,0.0296
2.1960e-06,-0.0704
2.2000e-06,0.0496
2.2040e-06,0.02
2.2080e-06,-0.0704
2.2120e-06,0.0576
2.2160e-06,0.008
2.2200e-06,-0.064
2.2240e-06,0.0624
2.2280e-06,-0.0032
2.2320e-06,-0.0584
2.2360e-06,0.0696
2.2400e-06,-0.0152
2.2440e-06,-0.0496
2.2480e-06,0.072
2.2520e-06,-0.0248
2.2560e-06,-0.0424
2.2600e-06,0.0752
2.2640e-06,-0.0368
2.2680e-06,-0.032
2.2720e-06,0.072
2.2760e-06,-0.044
2.2800e-06,-0.02
2.2840e-06,0.0712
2.2880e-06,-0.0528
2.2920e-06,-0.012
2.2960e-06,0.068
2.3000e-06,-0.06
2.3040e-06,0.0016
2.3080e-06,0.0616
2.3120e-06,-0.064
2.3160e-06,0.0096
2.3200e-06,0.0552
2.3240e-06,-0.0688
2.3280e-06,0.0224
2.3320e-06,0.048
2.3360e-06,-0.0728
2.3400e-06,0.0304
2.3440e-06,0.04
2.3480e-06,-0.0712
2.3520e-06,0.044
2.3560e-06,0.0288
2.3600e-06,-0.0704
2.3640e-06,0.048
2.3680e-06,0.02
2.3720e-06,-0.0712
2.3760e-06,0.0552
2.3800e-06,0.0072
2.3840e-06,-0.0616
2.3880e-06,0.0632
2.3920e-06,-0.0048
2.3960e-06,-0.0608
2.4000e-06,0.0704
2.4040e-06,-0.0112
2.4080e-06,-0.0504
2.4120e-06,0.072
2.4160e-06,-0.0224
2.4200e-06,-0.0424
2.4240e-06,0.0744
2.4280e-06,-0.032
2.4320e-06,-0.0344
2.4360e-06,0.0744
2.4400e-06,-0.04
2.4440e-06,-0.024
2.4480e-06,0.0688
2.4520e-06,-0.0512
2.4560e-06,-0.012
2.4600e-06,0.068
2.4640e-06,-0.0592
2.4680e-06,-0.004
2.4720e-06,0.0624
2.4760e-06,-0.0632
2.4800e-06,0.0096
2.4840e-06,0.0552
2.4880e-06,-0.0696
2.4920e-06,0.0208
2.4960e-06,0.0496
2.5000e-06,-0.0672
2.5040e-06,0.0304
2.5080e-06,0.0408
2.5120e-06,-0.072
2.5160e-06,0.04
2.5200e-06,0.0296
2.5240e-06,-0.0712
2.5280e-06,0.0488
2.5320e-06,0.0216
2.5360e-06,-0.0688
2.5400e-06,0.0536
2.5440e-06,0.0104
2.5480e-06,-0.0672
2.5520e-06,0.0616
2.5560e-06,-0.0016
2.5600e-06,-0.0576
2.5640e-06,0.0656
2.5680e-06,-0.0112
2.5720e-06,-0.0528
2.5760e-06,0.0728
2.5800e-06,-0.02
2.5840e-06,-0.044
2.5880e-06,0.072
2.5920e-06,-0.0368
2.5960e-06,-0.0344
2.6000e-06,0.0752
2.6040e-06,-0.0408
2.6080e-06,-0.0256
2.6120e-06,0.0728
2.6160e-06,-0.0504
2.6200e-06,-0.0152
2.6240e-06,0.0704
2.6280e-06,-0.0584
2.6320e-06,-0.0016
2.6360e-06,0.0632
2.6400e-06,-0.0624
2.6440e-06,0.0056
2.6480e-06,0.0592
2.6520e-06,-0.0704
2.6560e-06,0.0184
2.6600e-06,0.0512
2.6640e-06,-0.0704
2.6680e-06,0.0304
2.6720e-06,0.0416
2.6760e-06,-0.072
2.6800e-06,0.0352
2.6840e-06,0.0328
2.6880e-06,-0.0688
2.6920e-06,0.048
2.6960e-06,0.02
2.7000e-06,-0.0704
2.7040e-06,0.056
2.7080e-06,0.0096
2.7120e-06,-0.0632
2.7160e-06,0.0616
2.7200e-06,-0.0008
2.7240e-06,-0.06
2.7280e-06,0.0672
2.7320e-06,-0.008
2.7360e-06,-0.0528
2.7400e-06,0.0736
2.7440e-06,-0.0224
2.7480e-06,-0.0464
2.7520e-06,0.0728
2.7560e-06,-0.0312
2.7600e-06,-0.036
2.7640e-06,0.0736
2.7680e-06,-0.0416
2.7720e-06,-0.0256
2.7760e-06,0.072
2.7800e-06,-0.0504
2.7840e-06,-0.0168
2.7880e-06,0.0696
2.7920e-06,-0.0536
2.7960e-06,-0.0048
2.8000e-06,0.0648
2.8040e-06,-0.0624
2.8080e-06,0.0072
2.8120e-06,0.0592
2.8160e-06,-0.068
2.8200e-06,0.0136
2.8240e-06,0.0512
2.8280e-06,-0.0704
2.8320e-06,0.0256
2.8360e-06,0.0448
2.8400e-06,-0.0704
2.8440e-06,0.0336
2.8480e-06,0.0344
2.8520e-06,-0.0704
2.8560e-06,0.0472
2.8600e-06,0.0256
2.8640e-06,-0.0688
2.8680e-06,0.0536
2.8720e-06,0.012
2.8760e-06,-0.064
2.8800e-06,0.06
2.8840e-06,0.004
2.8880e-06,-0.06
2.8920e-06,0.0648
2.8960e-06,-0.008
2.9000e-06,-0.056
2.9040e-06,0.0696
2.9080e-06,-0.0176
2.9120e-06,-0.0464
2.9160e-06,0.0712
2.9200e-06,-0.0296
2.9240e-06,-0.0392
2.9280e-06,0.0736
2.9320e-06,-0.0368
2.9360e-06,-0.0256
2.9400e-06,0.0696
2.9440e-06,-0.0464
2.9480e-06,-0.0184
2.9520e-06,0.0688
2.9560e-06,-0.0568
2.9600e-06,-0.0056
2.9640e-06,0.0664
2.9680e-06,-0.0616
2.9720e-06,0.0032
2.9760e-06,0.0616
2.9800e-06,-0.0672
2.9840e-06,0.0144
2.9880e-06,0.0504
2.9920e-06,-0.0696
2.9960e-06,0.0232
3.0000e-06,0.0472
3.0040e-06,-0.0728
3.0080e-06,0.0344
3.0120e-06,0.0368
3.0160e-06,-0.068
3.0200e-06,0.044
3.0240e-06,0.0256
3.0280e-06,-0.068
3.0320e-06,0.052
3.0360e-06,0.0136
3.0400e-06,-0.068
3.0440e-06,0.0616
3.0480e-06,0
3.0520e-06,-0.06
3.0560e-06,0.0656
3.0600e-06,-0.0072
3.0640e-06,-0.0552
3.0680e-06,0.0688
3.0720e-06,-0.0192
3.0760e-06,-0.0472
3.0800e-06,0.0696
3.0840e-06,-0.0304
3.0880e-06,-0.0376
3.0920e-06,0.0744
3.0960e-06,-0.0376
3.1000e-06,-0.0296
3.1040e-06,0.0728
3.1080e-06,-0.0448
3.1120e-06,-0.0208
3.1160e-06,0.0696
3.1200e-06,-0.0536
3.1240e-06,-0.0096
3.1280e-06,0.0648
3.1320e-06,-0.0624
3.1360e-06,0.0032
3.1400e-06,0.0648
3.1440e-06,-0.0664
3.1480e-06,0.012
3.1520e-06,0.0552
3.1560e-06,-0.068
3.1600e-06,0.0256
3.1640e-06,0.0456
3.1680e-06,-0.068
3.1720e-06,0.0328
3.1760e-06,0.0376
3.1800e-06,-0.072
3.1840e-06,0.0432
3.1880e-06,0.0232
3.1920e-06,-0.0696
3.1960e-06,0.0512
3.2000e-06,0.0152
3.2040e-06,-0.0656
3.2080e-06,0.0568
3.2120e-06,0.0056
3.2160e-06,-0.0616
3.2200e-06,0.0632
3.2240e-06,-0.0088
3.2280e-06,-0.0576
3.2320e-06,0.0688
3.2360e-06,-0.0152
3.2400e-06,-0.0488
3.2440e-06,0.0728
3.2480e-06,-0.024
3.2520e-06,-0.044
3.2560e-06,0.072
3.2600e-06,-0.0352
3.2640e-06,-0.0312
3.2680e-06,0.0728
3.2720e-06,-0.0448
3.2760e-06,-0.0232
3.2800e-06,0.0704
3.2840e-06,-0.0528
3.2880e-06,-0.0112
3.2920e-06,0.0688
3.2960e-06,-0.0608
3.3000e-06,0.0016
3.3040e-06,0.0608
3.3080e-06,-0.0624
3.3120e-06,0.0112
3.3160e-06,0.0536
3.3200e-06,-0.0664
3.3240e-06,0.0216
3.3280e-06,0.0496
3.3320e-06,-0.0696
3.3360e-06,0.0328
3.3400e-06,0.0384
3.3440e-06,-0.0736
3.3480e-06,0.0424
3.3520e-06,0.0288
3.3560e-06,-0.0688
3.3600e-06,0.0488
3.3640e-06,0.0184
3.3680e-06,-0.0712
3.3720e-06,0.0552
3.3760e-06,0.0088
3.3800e-06,-0.064
3.3840e-06,0.0664
3.3880e-06,-0.0024
3.3920e-06,-0.0568
3.3960e-06,0.0688
3.4000e-06,-0.0128
3.4040e-06,-0.0528
3.4080e-06,0.0712
3.4120e-06,-0.0256
3.4160e-06,-0.0424
3.4200e-06,0.0736
3.4240e-06,-0.0352
3.4280e-06,-0.0328
3.4320e-06,0.072
3.4360e-06,-0.0432
3.4400e-06,-0.0224
3.4440e-06,0.0736
3.4480e-06,-0.0528
3.4520e-06,-0.0096
3.4560e-06,0.0672
3.4600e-06,-0.0584
3.4640e-06,0
3.4680e-06,0.0592
3.4720e-06,-0.0648
3.4760e-06,0.0112
3.4800e-06,0.0544
3.4840e-06,-0.068
3.4880e-06,0.0216
3.4920e-06,0.048
3.4960e-06,-0.0696
3.5000e-06,0.0312
3.5040e-06,0.0384
3.5080e-06,-0.068
3.5120e-06,0.0384
3.5160e-06,0.0288
3.5200e-06,-0.0696
3.5240e-06,0.0488
3.5280e-06,0.0176
3.5320e-06,-0.0704
3.5360e-06,0.0552
3.5400e-06,0.0064
3.5440e-06,-0.064
3.5480e-06,0.0624
3.5520e-06,-0.0032
3.5560e-06,-0.0576
3.5600e-06,0.0696
3.5640e-06,-0.012
3.5680e-06,-0.0496
3.5720e-06,0.0696
3.5760e-06,-0.024
3.5800e-06,-0.0448
3.5840e-06,0.072
3.5880e-06,-0.0336
3.5920e-06,-0.0368
3.5960e-06,0.076
3.6000e-06,-0.0392
3.6040e-06,-0.0232
3.6080e-06,0.0728
3.6120e-06,-0.0504
3.6160e-06,-0.012
3.6200e-06,0.0664
3.6240e-06,-0.0568
3.6280e-06,-0.004
3.6320e-06,0.064
3.6360e-06,-0.0632
3.6400e-06,0.0088
3.6440e-06,0.0552
3.6480e-06,-0.0672
3.6520e-06,0.0152
3.6560e-06,0.0472
3.6600e-06,-0.0712
3.6640e-06,0.028
3.6680e-06,0.0416
3.6720e-06,-0.0696
3.6760e-06,0.0368
3.6800e-06,0.0288
3.6840e-06,-0.072
3.6880e-06,0.048
3.6920e-06,0.016
3.6960e-06,-0.0664
3.7000e-06,0.056
3.7040e-06,0.012
3.7080e-06,-0.0648
3.7120e-06,0.0648
3.7160e-06,0.0008
3.7200e-06,-0.0568
3.7240e-06,0.068
3.7280e-06,-0.012
3.7320e-06,-0.0504
3.7360e-06,0.0696
3.7400e-06,-0.0232
3.7440e-06,-0.0432
3.7480e-06,0.0728
3.7520e-06,-0.0296
3.7560e-06,-0.0344
3.7600e-06,0.0704
3.7640e-06,-0.0408
3.7680e-06,-0.0248
3.7720e-06,0.0712
3.7760e-06,-0.0512
3.7800e-06,-0.012
3.7840e-06,0.0688
3.7880e-06,-0.0576
3.7920e-06,-0.004
3.7960e-06,0.0688
3.8000e-06,-0.0624
3.8040e-06,0.0064
3.8080e-06,0.0576
3.8120e-06,-0.0672
3.8160e-06,0.0168
3.8200e-06,0.0512
3.8240e-06,-0.0688
3.8280e-06,0.0248
3.8320e-06,0.044
3.8360e-06,-0.072
3.8400e-06,0.0368
3.8440e-06,0.0304
3.8480e-06,-0.0672
3.8520e-06,0.0456
3.8560e-06,0.0216
3.8600e-06,-0.0704
3.8640e-06,0.0552
3.8680e-06,0.0128
3.8720e-06,-0.064
3.8760e-06,0.0616
3.8800e-06,-0.0016
3.8840e-06,-0.0608
3.8880e-06,0.064
3.8920e-06,-0.008
3.8960e-06,-0.052
3.9000e-06,0.0704
3.9040e-06,-0.0184
3.9080e-06,-0.0448
3.9120e-06,0.0688
3.9160e-06,-0.032
3.9200e-06,-0.0352
3.9240e-06,0.0736
3.9280e-06,-0.0392
3.9320e-06,-0.0264
3.9360e-06,0.0704
3.9400e-06,-0.0472
3.9440e-06,-0.0176
3.9480e-06,0.0688
3.9520e-06,-0.0528
3.9560e-06,-0.0056
3.9600e-06,0.0624
3.9640e-06,-0.06
3.9680e-06,0.004
3.9720e-06,0.056
3.9760e-06,-0.0664
3.9800e-06,0.0192
3.9840e-06,0.052
3.9880e-06,-0.0712
3.9920e-06,0.028
3.9960e-06,0.0416
4.0000e-06,-0.0728
4.0040e-06,0.0352
4.0080e-06,0.0312
4.0120e-06,-0.068
4.0160e-06,0.044
4.0200e-06,0.024
4.0240e-06,-0.0696
4.0280e-06,0.052
4.0320e-06,0.012
4.0360e-06,-0.0648
4.0400e-06,0.0584
4.0440e-06,0
4.0480e-06,-0.0624
4.0520e-06,0.0632
4.0560e-06,-0.0064
4.0600e-06,-0.0536
4.0640e-06,0.068
4.0680e-06,-0.0184
4.0720e-06,-0.044
4.0760e-06,0.0712
4.0800e-06,-0.0304
4.0840e-06,-0.0376
4.0880e-06,0.0712
4.0920e-06,-0.0376
4.0960e-06,-0.0296
4.1000e-06,0.0736
4.1040e-06,-0.0472
4.1080e-06,-0.0176
4.1120e-06,0.0664
4.1160e-06,-0.0528
4.1200e-06,-0.0072
4.1240e-06,0.064
4.1280e-06,-0.0584
4.1320e-06,0.0024
4.1360e-06,0.0584
4.1400e-06,-0.0632
4.1440e-06,0.0152
4.1480e-06,0.0504
4.1520e-06,-0.0704
4.1560e-06,0.024
4.1600e-06,0.0448
4.1640e-06,-0.068
4.1680e-06,0.0352
4.1720e-06,0.036
4.1760e-06,-0.0696
4.1800e-06,0.0408
4.1840e-06,0.0264
4.1880e-06,-0.068
4.1920e-06,0.0528
4.1960e-06,0.012
4.2000e-06,-0.0672
4.2040e-06,0.0584
4.2080e-06,0.0048
4.2120e-06,-0.0632
4.2160e-06,0.0632
4.2200e-06,-0.0056
4.2240e-06,-0.056
4.2280e-06,0.0704
4.2320e-06,-0.016
4.2360e-06,-0.0472
4.2400e-06,0.0744
4.2440e-06,-0.0264
4.2480e-06,-0.0384
4.2520e-06,0.0688
4.2560e-06,-0.0368
4.2600e-06,-0.0304
4.2640e-06,0.0712
4.2680e-06,-0.0472
4.2720e-06,-0.0216
4.2760e-06,0.0728
4.2800e-06,-0.0528
4.2840e-06,-0.0088
4.2880e-06,0.064
4.2920e-06,-0.06
4.2960e-06,-0.0008
4.3000e-06,0.06
4.3040e-06,-0.0648
4.3080e-06,0.0112
4.3120e-06,0.0536
4.3160e-06,-0.068
4.3200e-06,0.02
4.3240e-06,0.048
4.3280e-06,-0.0696
4.3320e-06,0.0328
4.3360e-06,0.0368
4.3400e-06,-0.0696
4.3440e-06,0.0424
4.3480e-06,0.0272
4.3520e-06,-0.0688
4.3560e-06,0.0504
4.3600e-06,0.0176
4.3640e-06,-0.0664
4.3680e-06,0.056
4.3720e-06,0.004
4.3760e-06,-0.0632
4.3800e-06,0.0632
4.3840e-06,-0.0056
4.3880e-06,-0.0568
4.3920e-06,0.068
4.3960e-06,-0.016
4.4000e-06,-0.0464
4.4040e-06,0.0688
4.4080e-06,-0.0272
4.4120e-06,-0.04
4.4160e-06,0.0688
4.4200e-06,-0.0368
4.4240e-06,-0.0312
4.4280e-06,0.072
4.4320e-06,-0.0424
4.4360e-06,-0.0216
4.4400e-06,0.0688
4.4440e-06,-0.052
4.4480e-06,-0.0104
4.4520e-06,0.0648
4.4560e-06,-0.0584
4.4600e-06,0.0016
4.4640e-06,0.06
4.4680e-06,-0.0632
4.4720e-06,0.0104
4.4760e-06,0.0528
4.4800e-06,-0.0648
4.4840e-06,0.02
4.4880e-06,0.0432
4.4920e-06,-0.0688
4.4960e-06,0.0304
4.5000e-06,0.04
4.5040e-06,-0.0672
4.5080e-06,0.04
4.5120e-06,0.0288
4.5160e-06,-0.0704
4.5200e-06,0.0528
4.5240e-06,0.0184
4.5280e-06,-0.0656
4.5320e-06,0.0568
4.5360e-06,0.0072
4.5400e-06,-0.0656
4.5440e-06,0.0648
4.5480e-06,-0.0056
4.5520e-06,-0.0576
4.5560e-06,0.0664
4.5600e-06,-0.0152
4.5640e-06,-0.052
4.5680e-06,0.068
4.5720e-06,-0.0216
4.5760e-06,-0.0408
4.5800e-06,0.0712
4.5840e-06,-0.0312
4.5880e-06,-0.0328
4.5920e-06,0.0712
4.5960e-06,-0.0392
4.6000e-06,-0.0208
4.6040e-06,0.0712
4.6080e-06,-0.052
4.6120e-06,-0.0152
4.6160e-06,0.0624
4.6200e-06,-0.0592
4.6240e-06,-0.0008
4.6280e-06,0.0632
4.6320e-06,-0.06
4.6360e-06,0.0112
4.6400e-06,0.0544
4.6440e-06,-0.0696
4.6480e-06,0.0176
4.6520e-06,0.0472
4.6560e-06,-0.068
4.6600e-06,0.0304
4.6640e-06,0.0448
4.6680e-06,-0.0712
4.6720e-06,0.0392
4.6760e-06,0.032
4.6800e-06,-0.0728
4.6840e-06,0.048
4.6880e-06,0.0176
4.6920e-06,-0.0656
4.6960e-06,0.0536
4.7000e-06,0.0088
4.7040e-06,-0.0632
4.7080e-06,0.0616
4.7120e-06,0
4.7160e-06,-0.0568
4.7200e-06,0.064
4.7240e-06,-0.016
4.7280e-06,-0.0504
4.7320e-06,0.0696
4.7360e-06,-0.0208
4.7400e-06,-0.0448
4.7440e-06,0.0728
4.7480e-06,-0.032
4.7520e-06,-0.0336
4.7560e-06,0.0704
4.7600e-06,-0.04
4.7640e-06,-0.024
4.7680e-06,0.0688
4.7720e-06,-0.052
4.7760e-06,-0.0136
4.7800e-06,0.0656
4.7840e-06,-0.0584
4.7880e-06,-0.0024
4.7920e-06,0.0624
4.7960e-06,-0.0632
4.8000e-06,0.0072
4.8040e-06,0.0568
4.8080e-06,-0.0656
4.8120e-06,0.016
4.8160e-06,0.0472
4.8200e-06,-0.068
4.8240e-06,0.028
4.8280e-06,0.0416
4.8320e-06,-0.068
4.8360e-06,0.0392
4.8400e-06,0.0304
4.8440e-06,-0.0696
4.8480e-06,0.0464
4.8520e-06,0.0216
4.8560e-06,-0.0656
4.8600e-06,0.0528
4.8640e-06,0.0136
4.8680e-06,-0.0632
4.8720e-06,0.0608
4.8760e-06,0.0016
4.8800e-06,-0.056
4.8840e-06,0.0688
4.8880e-06,-0.008
4.8920e-06,-0.052
4.8960e-06,0.0656
4.9000e-06,-0.0216
4.9040e-06,-0.0456
4.9080e-06,0.0712
4.9120e-06,-0.032
4.9160e-06,-0.0368
4.9200e-06,0.0704
4.9240e-06,-0.0376
4.9280e-06,-0.0264
4.9320e-06,0.0688
4.9360e-06,-0.0488
4.9400e-06,-0.0168
4.9440e-06,0.0656
4.9480e-06,-0.0552
4.9520e-06,-0.0056
4.9560e-06,0.0624
4.9600e-06,-0.0592
4.9640e-06,0.004
4.9680e-06,0.056
4.9720e-06,-0.0672
4.9760e-06,0.0152
4.9800e-06,0.048
4.9840e-06,-0.0672
4.9880e-06,0.0256
4.9920e-06,0.0392
4.9960e-06,-0.0704
5.0000e-06,0.0336
5.0040e-06,0.0328
5.0080e-06,-0.0712
5.0120e-06,0.0456
5.0160e-06,0.0224
5.0200e-06,-0.0696
5.0240e-06,0.052
5.0280e-06,0.0136
5.0320e-06,-0.0624
5.0360e-06,0.0568
5.0400e-06,0.0008
5.0440e-06,-0.0592
5.0480e-06,0.0648
5.0520e-06,-0.0064
5.0560e-06,-0.052
5.0600e-06,0.0688
5.0640e-06,-0.0168
5.0680e-06,-0.044
5.0720e-06,0.0712
5.0760e-06,-0.028
5.0800e-06,-0.0368
5.0840e-06,0.0704
5.0880e-06,-0.04
5.0920e-06,-0.0248
5.0960e-06,0.0728
5.1000e-06,-0.048
5.1040e-06,-0.0184
5.1080e-06,0.068
5.1120e-06,-0.052
5.1160e-06,-0.008
5.1200e-06,0.0616
5.1240e-06,-0.0592
5.1280e-06,0.0056
5.1320e-06,0.0584
5.1360e-06,-0.0664
5.1400e-06,0.0128
5.1440e-06,0.0512
5.1480e-06,-0.0672
5.1520e-06,0.0232
5.1560e-06,0.0432
5.1600e-06,-0.068
5.1640e-06,0.0336
5.1680e-06,0.0368
5.1720e-06,-0.0696
5.1760e-06,0.044
5.1800e-06,0.0232
5.1840e-06,-0.0696
5.1880e-06,0.0512
5.1920e-06,0.0168
5.1960e-06,-0.0672
5.2000e-06,0.0584
5.2040e-06,0.004
5.2080e-06,-0.0616
5.2120e-06,0.0664
5.2160e-06,-0.008
5.2200e-06,-0.0528
5.2240e-06,0.0624
5.2280e-06,-0.0184
5.2320e-06,-0.048
5.2360e-06,0.0696
5.2400e-06,-0.028
5.2440e-06,-0.0376
5.2480e-06,0.0728
5.2520e-06,-0.0336
5.2560e-06,-0.0272
5.2600e-06,0.0712
5.2640e-06,-0.0432
5.2680e-06,-0.0176
5.2720e-06,0.0672
5.2760e-06,-0.0544
5.2800e-06,-0.0088
5.2840e-06,0.0656
5.2880e-06,-0.0592
5.2920e-06,0.0008
5.2960e-06,0.056
5.3000e-06,-0.0656
5.3040e-06,0.0144
5.3080e-06,0.0544
5.3120e-06,-0.0696
5.3160e-06,0.0256
5.3200e-06,0.0464
5.3240e-06,-0.068
5.3280e-06,0.0312
5.3320e-06,0.0368
5.3360e-06,-0.0728
5.3400e-06,0.0432
5.3440e-06,0.0264
5.3480e-06,-0.0672
5.3520e-06,0.0496
5.3560e-06,0.0152
5.3600e-06,-0.0648
5.3640e-06,0.0576
5.3680e-06,0.0056
5.3720e-06,-0.0616
5.3760e-06,0.064
5.3800e-06,-0.008
5.3840e-06,-0.0528
5.3880e-06,0.0688
5.3920e-06,-0.0144
5.3960e-06,-0.0496
5.4000e-06,0.0728
5.4040e-06,-0.028
5.4080e-06,-0.0416
5.4120e-06,0.0712
5.4160e-06,-0.0344
5.4200e-06,-0.0304
5.4240e-06,0.072
5.4280e-06,-0.0448
5.4320e-06,-0.0176
5.4360e-06,0.068
5.4400e-06,-0.0536
5.4440e-06,-0.0088
5.4480e-06,0.0672
5.4520e-06,-0.0568
5.4560e-06,-0.0016
5.4600e-06,0.0616
5.4640e-06,-0.0648
5.4680e-06,0.0112
5.4720e-06,0.0536
5.4760e-06,-0.0656
5.4800e-06,0.0216
5.4840e-06,0.0456
5.4880e-06,-0.0688
5.4920e-06,0.032
5.4960e-06,0.0336
5.5000e-06,-0.0704
5.5040e-06,0.0408
5.5080e-06,0.0272
5.5120e-06,-0.0696
5.5160e-06,0.048
5.5200e-06,0.0176
5.5240e-06,-0.0656
5.5280e-06,0.0568
5.5320e-06,0.008
5.5360e-06,-0.064
5.5400e-06,0.0656
5.5440e-06,-0.0032
5.5480e-06,-0.0568
5.5520e-06,0.0648
5.5560e-06,-0.0104
5.5600e-06,-0.0472
5.5640e-06,0.0688
5.5680e-06,-0.0232
5.5720e-06,-0.0384
5.5760e-06,0.072
5.5800e-06,-0.0368
5.5840e-06,-0.032
5.5880e-06,0.0704
5.5920e-06,-0.0416
5.5960e-06,-0.0208
5.6000e-06,0.0696
5.6040e-06,-0.0512
5.6080e-06,-0.0136
5.6120e-06,0.0656
5.6160e-06,-0.0592
5.6200e-06,0.0008
5.6240e-06,0.06
5.6280e-06,-0.0608
5.6320e-06,0.0088
5.6360e-06,0.0544
5.6400e-06,-0.0648
5.6440e-06,0.0216
5.6480e-06,0.0464
5.6520e-06,-0.072
5.6560e-06,0.0328
5.6600e-06,0.0376
5.6640e-06,-0.0688
5.6680e-06,0.0392
5.6720e-06,0.028
5.6760e-06,-0.0704
5.6800e-06,0.0488
5.6840e-06,0.0184
5.6880e-06,-0.0672
5.6920e-06,0.0544
5.6960e-06,0.008
5.7000e-06,-0.0624
5.7040e-06,0.0632
5.7080e-06,-0.0016
5.7120e-06,-0.0568
5.7160e-06,0.068
5.7200e-06,-0.012
5.7240e-06,-0.0496
5.7280e-06,0.068
5.7320e-06,-0.0232
5.7360e-06,-0.044
5.7400e-06,0.072
5.7440e-06,-0.0352
5.7480e-06,-0.0344
5.7520e-06,0.0712
5.7560e-06,-0.0424
5.7600e-06,-0.02
5.7640e-06,0.0712
5.7680e-06,-0.052
5.7720e-06,-0.0144
5.7760e-06,0.0672
5.7800e-06,-0.056
5.7840e-06,-0.0016
5.7880e-06,0.0592
5.7920e-06,-0.0624
5.7960e-06,0.0096
5.8000e-06,0.0568
5.8040e-06,-0.0672
5.8080e-06,0.0152
5.8120e-06,0.0496
5.8160e-06,-0.072
5.8200e-06,0.0248
5.8240e-06,0.0408
5.8280e-06,-0.0696
5.8320e-06,0.0408
5.8360e-06,0.0312
5.8400e-06,-0.072
5.8440e-06,0.0496
5.8480e-06,0.02
5.8520e-06,-0.064
5.8560e-06,0.0528
5.8600e-06,0.0128
5.8640e-06,-0.0672
5.8680e-06,0.0608
5.8720e-06,0.0016
5.8760e-06,-0.0616
5.8800e-06,0.0664
5.8840e-06,-0.0128
5.8880e-06,-0.0528
5.8920e-06,0.0688
5.8960e-06,-0.0216
5.9000e-06,-0.0424
5.9040e-06,0.0712
5.9080e-06,-0.0296
5.9120e-06,-0.0352
5.9160e-06,0.0712
5.9200e-06,-0.04
5.9240e-06,-0.0248
5.9280e-06,0.0736
5.9320e-06,-0.0496
5.9360e-06,-0.0136
5.9400e-06,0.0696
5.9440e-06,-0.0568
5.9480e-06,-0.0032
5.9520e-06,0.0624
5.9560e-06,-0.0632
5.9600e-06,0.0072
5.9640e-06,0.0536
5.9680e-06,-0.0648
5.9720e-06,0.0168
5.9760e-06,0.0496
5.9800e-06,-0.0656
5.9840e-06,0.0264
5.9880e-06,0.0432
5.9920e-06,-0.072
5.9960e-06,0.0384
6.0000e-06,0.032
6.0040e-06,-0.0704
6.0080e-06,0.0456
6.0120e-06,0.02
6.0160e-06,-0.068
6.0200e-06,0.0552
6.0240e-06,0.0104
6.0280e-06,-0.064
6.0320e-06,0.06
6.0360e-06,0.0024
6.0400e-06,-0.0616
6.0440e-06,0.0664
6.0480e-06,-0.0088
6.0520e-06,-0.0504
6.0560e-06,0.0696
6.0600e-06,-0.0192
6.0640e-06,-0.044
6.0680e-06,0.0696
6.0720e-06,-0.032
6.0760e-06,-0.0352
6.0800e-06,0.0704
6.0840e-06,-0.0368
6.0880e-06,-0.0272
6.0920e-06,0.0712
6.0960e-06,-0.0496
6.1000e-06,-0.0168
6.1040e-06,0.0664
6.1080e-06,-0.0536
6.1120e-06,-0.0064
6.1160e-06,0.064
6.1200e-06,-0.0608
6.1240e-06,0.0024
6.1280e-06,0.0592
6.1320e-06,-0.0624
6.1360e-06,0.0144
6.1400e-06,0.052
6.1440e-06,-0.0656
6.1480e-06,0.0264
6.1520e-06,0.0448
6.1560e-06,-0.0712
6.1600e-06,0.0376
6.1640e-06,0.0344
6.1680e-06,-0.0704
6.1720e-06,0.0456
6.1760e-06,0.0208
6.1800e-06,-0.0664
6.1840e-06,0.0528
6.1880e-06,0.0144
6.1920e-06,-0.064
6.1960e-06,0.0592
6.2000e-06,0.0016
6.2040e-06,-0.06
6.2080e-06,0.0648
6.2120e-06,-0.0104
6.2160e-06,-0.0552
6.2200e-06,0.0688
6.2240e-06,-0.0176
6.2280e-06,-0.0424
6.2320e-06,0.0712
6.2360e-06,-0.0248
6.2400e-06,-0.04
6.2440e-06,0.0736
6.2480e-06,-0.036
6.2520e-06,-0.0264
6.2560e-06,0.0696
6.2600e-06,-0.0504
6.2640e-06,-0.0168
6.2680e-06,0.0688
6.2720e-06,-0.0536
6.2760e-06,-0.008
6.2800e-06,0.0648
6.2840e-06,-0.06
6.2880e-06,0.0048
6.2920e-06,0.06
6.2960e-06,-0.0656
6.3000e-06,0.0144
6.3040e-06,0.052
6.3080e-06,-0.0688
6.3120e-06,0.0272
6.3160e-06,0.0448
6.3200e-06,-0.0736
6.3240e-06,0.0344
6.3280e-06,0.0344
6.3320e-06,-0.0712
6.3360e-06,0.0424
6.3400e-06,0.0256
6.3440e-06,-0.068
6.3480e-06,0.0512
6.3520e-06,0.016
6.3560e-06,-0.068
6.3600e-06,0.06
6.3640e-06,0.004
6.3680e-06,-0.0592
6.3720e-06,0.064
6.3760e-06,-0.008
6.3800e-06,-0.0552
6.3840e-06,0.0648
6.3880e-06,-0.0168
6.3920e-06,-0.0456
6.3960e-06,0.0712
6.4000e-06,-0.0248
6.4040e-06,-0.0376
6.4080e-06,0.0752
6.4120e-06,-0.0376
6.4160e-06,-0.0296
6.4200e-06,0.0688
6.4240e-06,-0.0464
6.4280e-06,-0.02
6.4320e-06,0.072
6.4360e-06,-0.0496
6.4400e-06,-0.008
6.4440e-06,0.0632
6.4480e-06,-0.0592
6.4520e-06,0.0024
6.4560e-06,0.0568
6.4600e-06,-0.0632
6.4640e-06,0.0112
6.4680e-06,0.0512
6.4720e-06,-0.0664
6.4760e-06,0.024
6.4800e-06,0.0432
6.4840e-06,-0.0688
6.4880e-06,0.0328
6.4920e-06,0.0376
6.4960e-06,-0.068
6.5000e-06,0.0424
6.5040e-06,0.0288
6.5080e-06,-0.0664
6.5120e-06,0.0504
6.5160e-06,0.0168
6.5200e-06,-0.0664
6.5240e-06,0.056
6.5280e-06,0.0056
6.5320e-06,-0.0608
6.5360e-06,0.064
6.5400e-06,-0.0032
6.5440e-06,-0.0552
6.5480e-06,0.0664
6.5520e-06,-0.0136
6.5560e-06,-0.0496
6.5600e-06,0.0688
6.5640e-06,-0.0248
6.5680e-06,-0.04
6.5720e-06,0.0712
6.5760e-06,-0.0352
6.5800e-06,-0.0304
6.5840e-06,0.072
6.5880e-06,-0.0432
6.5920e-06,-0.0192
6.5960e-06,0.0696
6.6000e-06,-0.0536
6.6040e-06,-0.0088
6.6080e-06,0.0656
6.6120e-06,-0.06
6.6160e-06,0.0016
6.6200e-06,0.0608
6.6240e-06,-0.0592
6.6280e-06,0.0104
6.6320e-06,0.0568
6.6360e-06,-0.0656
6.6400e-06,0.0224
6.6440e-06,0.0464
6.6480e-06,-0.0728
6.6520e-06,0.0328
6.6560e-06,0.036
6.6600e-06,-0.072
6.6640e-06,0.0416
6.6680e-06,0.0256
6.6720e-06,-0.0696
6.6760e-06,0.0472
6.6800e-06,0.0176
6.6840e-06,-0.0656
6.6880e-06,0.0568
6.6920e-06,0.0104
6.6960e-06,-0.0632
6.7000e-06,0.0648
6.7040e-06,-0.004
6.7080e-06,-0.0576
6.7120e-06,0.0656
6.7160e-06,-0.0104
6.7200e-06,-0.0504
6.7240e-06,0.0712
6.7280e-06,-0.024
6.7320e-06,-0.0392
6.7360e-06,0.0696
6.7400e-06,-0.0344
6.7440e-06,-0.0312
6.7480e-06,0.0712
6.7520e-06,-0.0408
6.7560e-06,-0.0208
6.7600e-06,0.0688
6.7640e-06,-0.0512
6.7680e-06,-0.0104
6.7720e-06,0.0648
6.7760e-06,-0.0576
6.7800e-06,-0.0016
6.7840e-06,0.0592
6.7880e-06,-0.0632
6.7920e-06,0.0088
6.7960e-06,0.0544
6.8000e-06,-0.064
6.8040e-06,0.0216
6.8080e-06,0.048
6.8120e-06,-0.0688
6.8160e-06,0.0304
6.8200e-06,0.036
6.8240e-06,-0.072
6.8280e-06,0.04
6.8320e-06,0.032
6.8360e-06,-0.0664
6.8400e-06,0.0464
6.8440e-06,0.0168
6.8480e-06,-0.0672
6.8520e-06,0.0536
6.8560e-06,0.0088
6.8600e-06,-0.0616
6.8640e-06,0.06
6.8680e-06,-0.0032
6.8720e-06,-0.0592
6.8760e-06,0.068
6.8800e-06,-0.012
6.8840e-06,-0.0496
6.8880e-06,0.0688
6.8920e-06,-0.0216
6.8960e-06,-0.044
6.9000e-06,0.0696
6.9040e-06,-0.0312
6.9080e-06,-0.0344
6.9120e-06,0.0704
6.9160e-06,-0.0408
6.9200e-06,-0.0224
6.9240e-06,0.0712
6.9280e-06,-0.0488
6.9320e-06,-0.0136
6.9360e-06,0.0672
6.9400e-06,-0.06
6.9440e-06,-0.0024
6.9480e-06,0.0632
6.9520e-06,-0.0608
6.9560e-06,0.0096
6.9600e-06,0.0544
6.9640e-06,-0.0664
6.9680e-06,0.0168
6.9720e-06,0.0512
6.9760e-06,-0.0696
6.9800e-06,0.0296
6.9840e-06,0.0424
6.9880e-06,-0.0656
6.9920e-06,0.0384
6.9960e-06,0.0288
7.0000e-06,-0.072
7.0040e-06,0.0488
7.0080e-06,0.0248
7.0120e-06,-0.0672
7.0160e-06,0.0544
7.0200e-06,0.008
7.0240e-06,-0.0608
7.0280e-06,0.0608
7.0320e-06,-0.0024
7.0360e-06,-0.0592
7.0400e-06,0.0648
7.0440e-06,-0.0136
7.0480e-06,-0.052
7.0520e-06,0.0688
7.0560e-06,-0.02
7.0600e-06,-0.044
7.0640e-06,0.068
7.0680e-06,-0.0336
7.0720e-06,-0.032
7.0760e-06,0.0752
7.0800e-06,-0.04
7.0840e-06,-0.0272
7.0880e-06,0.0696
7.0920e-06,-0.0504
7.0960e-06,-0.0112
7.1000e-06,0.0664
7.1040e-06,-0.0568
7.1080e-06,-0.0056
7.1120e-06,0.0616
7.1160e-06,-0.0608
7.1200e-06,0.004
7.1240e-06,0.0576
7.1280e-06,-0.0656
7.1320e-06,0.0184
7.1360e-06,0.0488
7.1400e-06,-0.0664
7.1440e-06,0.0296
7.1480e-06,0.0432
7.1520e-06,-0.072
7.1560e-06,0.0368
7.1600e-06,0.0328
7.1640e-06,-0.0704
7.1680e-06,0.0456
7.1720e-06,0.0232
7.1760e-06,-0.0672
7.1800e-06,0.0528
7.1840e-06,0.012
7.1880e-06,-0.0624
7.1920e-06,0.0592
7.1960e-06,0.004
7.2000e-06,-0.0592
7.2040e-06,0.0664
7.2080e-06,-0.0104
7.2120e-06,-0.0504
7.2160e-06,0.068
7.2200e-06,-0.0168
7.2240e-06,-0.044
7.2280e-06,0.0728
7.2320e-06,-0.0312
7.2360e-06,-0.036
7.2400e-06,0.0744
7.2440e-06,-0.0392
7.2480e-06,-0.0264
7.2520e-06,0.0704
7.2560e-06,-0.0464
7.2600e-06,-0.0184
7.2640e-06,0.0672
7.2680e-06,-0.0536
7.2720e-06,-0.0056
7.2760e-06,0.0632
7.2800e-06,-0.06
7.2840e-06,0.0048
7.2880e-06,0.0568
7.2920e-06,-0.068
7.2960e-06,0.0152
7.3000e-06,0.0536
7.3040e-06,-0.068
7.3080e-06,0.0264
7.3120e-06,0.0424
7.3160e-06,-0.0688
7.3200e-06,0.0336
7.3240e-06,0.0368
7.3280e-06,-0.072
7.3320e-06,0.0472
7.3360e-06,0.024
7.3400e-06,-0.0664
7.3440e-06,0.0536
7.3480e-06,0.0144
7.3520e-06,-0.0624
7.3560e-06,0.0568
7.3600e-06,0.0048
7.3640e-06,-0.0616
7.3680e-06,0.064
7.3720e-06,-0.0056
7.3760e-06,-0.0544
7.3800e-06,0.0704
7.3840e-06,-0.0192
7.3880e-06,-0.0472
7.3920e-06,0.0704
7.3960e-06,-0.0288
7.4000e-06,-0.0376
7.4040e-06,0.0728
7.4080e-06,-0.0376
7.4120e-06,-0.0288
7.4160e-06,0.0696
7.4200e-06,-0.0456
7.4240e-06,-0.0152
7.4280e-06,0.0712
7.4320e-06,-0.0536
7.4360e-06,-0.0096
7.4400e-06,0.0648
7.4440e-06,-0.0608
7.4480e-06,0.004
7.4520e-06,0.0592
7.4560e-06,-0.0624
7.4600e-06,0.0136
7.4640e-06,0.052
7.4680e-06,-0.0656
7.4720e-06,0.0256
7.4760e-06,0.0432
7.4800e-06,-0.0696
7.4840e-06,0.0344
7.4880e-06,0.0368
7.4920e-06,-0.068
7.4960e-06,0.0408
7.5000e-06,0.024
7.5040e-06,-0.0688
7.5080e-06,0.052
7.5120e-06,0.0168
7.5160e-06,-0.0648
7.5200e-06,0.0592
7.5240e-06,0.0048
7.5280e-06,-0.0608
7.5320e-06,0.064
7.5360e-06,-0.008
7.5400e-06,-0.056
7.5440e-06,0.0672
7.5480e-06,-0.012
7.5520e-06,-0.0464
7.5560e-06,0.0728
7.5600e-06,-0.0264
7.5640e-06,-0.0408
7.5680e-06,0.0712
7.5720e-06,-0.0376
7.5760e-06,-0.0264
7.5800e-06,0.0712
7.5840e-06,-0.044
7.5880e-06,-0.0216
7.5920e-06,0.0688
7.5960e-06,-0.0512
7.6000e-06,-0.008
7.6040e-06,0.064
7.6080e-06,-0.0568
7.6120e-06,0.0024
7.6160e-06,0.0608
7.6200e-06,-0.0624
7.6240e-06,0.0136
7.6280e-06,0.0504
7.6320e-06,-0.0648
7.6360e-06,0.0232
7.6400e-06,0.0464
7.6440e-06,-0.068
7.6480e-06,0.0344
7.6520e-06,0.036
7.6560e-06,-0.0704
7.6600e-06,0.0392
7.6640e-06,0.0256
7.6680e-06,-0.0696
7.6720e-06,0.0504
7.6760e-06,0.0176
7.6800e-06,-0.0656
7.6840e-06,0.0552
7.6880e-06,0.0096
7.6920e-06,-0.0632
7.6960e-06,0.0624
7.7000e-06,-0.0056
7.7040e-06,-0.0544
7.7080e-06,0.0704
7.7120e-06,-0.0144
7.7160e-06,-0.0448
7.7200e-06,0.0712
7.7240e-06,-0.0216
7.7280e-06,-0.0392
7.7320e-06,0.0696
7.7360e-06,-0.0344
7.7400e-06,-0.0288
7.7440e-06,0.0712
7.7480e-06,-0.044
7.7520e-06,-0.0208
7.7560e-06,0.0672
7.7600e-06,-0.0544
7.7640e-06,-0.0096
7.7680e-06,0.0648
7.7720e-06,-0.0536
7.7760e-06,0.0008
7.7800e-06,0.0584
7.7840e-06,-0.0624
7.7880e-06,0.0096
7.7920e-06,0.052
7.7960e-06,-0.068
7.8000e-06,0.0192
7.8040e-06,0.0448
7.8080e-06,-0.0696
7.8120e-06,0.032
7.8160e-06,0.0368
7.8200e-06,-0.072
7.8240e-06,0.04
7.8280e-06,0.028
7.8320e-06,-0.068
7.8360e-06,0.0504
7.8400e-06,0.0176
7.8440e-06,-0.0656
7.8480e-06,0.0584
7.8520e-06,0.0032
7.8560e-06,-0.0584
7.8600e-06,0.0624
7.8640e-06,-0.0024
7.8680e-06,-0.0552
7.8720e-06,0.0656
7.8760e-06,-0.0112
7.8800e-06,-0.048
7.8840e-06,0.0688
7.8880e-06,-0.0216
7.8920e-06,-0.0432
7.8960e-06,0.0696
7.9000e-06,-0.0328
7.9040e-06,-0.0344
7.9080e-06,0.0696
7.9120e-06,-0.0448
7.9160e-06,-0.0248
7.9200e-06,0.0664
7.9240e-06,-0.0488
7.9280e-06,-0.0104
7.9320e-06,0.0648
7.9360e-06,-0.056
7.9400e-06,-0.0032
7.9440e-06,0.0616
7.9480e-06,-0.0592
7.9520e-06,0.0112
7.9560e-06,0.0576
7.9600e-06,-0.0648
7.9640e-06,0.02
7.9680e-06,0.0472
7.9720e-06,-0.0672
7.9760e-06,0.0264
7.9800e-06,0.0376
7.9840e-06,-0.0712
7.9880e-06,0.0376
7.9920e-06,0.032
7.9960e-06,-0.0704
8.0000e-06,0.0464
8.0040e-06,0.0168
8.0080e-06,-0.0664
8.0120e-06,0.0568
8.0160e-06,0.0072
8.0200e-06,-0.06
8.0240e-06,0.0608
8.0280e-06,-0.0016
8.0320e-06,-0.0568
8.0360e-06,0.0656
8.0400e-06,-0.0104
8.0440e-06,-0.0496
8.0480e-06,0.0688
8.0520e-06,-0.0232
8.0560e-06,-0.04
8.0600e-06,0.0704
8.0640e-06,-0.0328
8.0680e-06,-0.0344
8.0720e-06,0.072
8.0760e-06,-0.0392
8.0800e-06,-0.0256
8.0840e-06,0.0704
8.0880e-06,-0.0456
8.0920e-06,-0.0128
8.0960e-06,0.064
8.1000e-06,-0.0544
8.1040e-06,-0.0024
8.1080e-06,0.0624
8.1120e-06,-0.0608
8.1160e-06,0.0072
8.1200e-06,0.0576
8.1240e-06,-0.0648
8.1280e-06,0.0192
8.1320e-06,0.048
8.1360e-06,-0.0688
8.1400e-06,0.0296
8.1440e-06,0.04
8.1480e-06,-0.0712
8.1520e-06,0.0376
8.1560e-06,0.0336
8.1600e-06,-0.0696
8.1640e-06,0.0472
8.1680e-06,0.0208
8.1720e-06,-0.0664
8.1760e-06,0.0544
8.1800e-06,0.012
8.1840e-06,-0.0632
8.1880e-06,0.0616
8.1920e-06,-0.0032
8.1960e-06,-0.0592
8.2000e-06,0.0656
8.2040e-06,-0.0096
8.2080e-06,-0.052
8.2120e-06,0.068
8.2160e-06,-0.024
8.2200e-06,-0.0456
8.2240e-06,0.0744
8.2280e-06,-0.0296
8.2320e-06,-0.036
8.2360e-06,0.072
8.2400e-06,-0.0392
8.2440e-06,-0.0248
8.2480e-06,0.0728
8.2520e-06,-0.0496
8.2560e-06,-0.0168
8.2600e-06,0.0656
8.2640e-06,-0.0552
8.2680e-06,-0.0064
8.2720e-06,0.0616
8.2760e-06,-0.0608
8.2800e-06,0.0072
8.2840e-06,0.0584
8.2880e-06,-0.0656
8.2920e-06,0.02
8.2960e-06,0.052
8.3000e-06,-0.0704
8.3040e-06,0.0248
8.3080e-06,0.0416
8.3120e-06,-0.0688
8.3160e-06,0.0376
8.3200e-06,0.0336
8.3240e-06,-0.072
8.3280e-06,0.0432
8.3320e-06,0.024
8.3360e-06,-0.0688
8.3400e-06,0.0536
8.3440e-06,0.012
8.3480e-06,-0.0616
8.3520e-06,0.0616
8.3560e-06,0.0016
8.3600e-06,-0.0592
8.3640e-06,0.0672
8.3680e-06,-0.0088
8.3720e-06,-0.0544
8.3760e-06,0.0656
8.3800e-06,-0.0224
8.3840e-06,-0.0448
8.3880e-06,0.0688
8.3920e-06,-0.0296
8.3960e-06,-0.0368
8.4000e-06,0.0704
8.4040e-06,-0.0392
8.4080e-06,-0.0256
8.4120e-06,0.0704
8.4160e-06,-0.0472
8.4200e-06,-0.0184
8.4240e-06,0.068
8.4280e-06,-0.052
8.4320e-06,-0.0072
8.4360e-06,0.0624
8.4400e-06,-0.0584
8.4440e-06,0.0056
8.4480e-06,0.056
8.4520e-06,-0.0616
8.4560e-06,0.0136
8.4600e-06,0.052
8.4640e-06,-0.068
8.4680e-06,0.0272
8.4720e-06,0.0424
8.4760e-06,-0.072
8.4800e-06,0.032
8.4840e-06,0.0304
8.4880e-06,-0.0664
8.4920e-06,0.0432
8.4960e-06,0.0232
8.5000e-06,-0.0672
8.5040e-06,0.0496
8.5080e-06,0.0168
8.5120e-06,-0.0656
8.5160e-06,0.0568
8.5200e-06,0.004
8.5240e-06,-0.0624
8.5280e-06,0.064
8.5320e-06,-0.0072
8.5360e-06,-0.052
8.5400e-06,0.068
8.5440e-06,-0.0168
8.5480e-06,-0.0472
8.5520e-06,0.0704
8.5560e-06,-0.0288
8.5600e-06,-0.0376
8.5640e-06,0.0688
8.5680e-06,-0.0368
8.5720e-06,-0.0304
8.5760e-06,0.0704
8.5800e-06,-0.0456
8.5840e-06,-0.0176
8.5880e-06,0.068
8.5920e-06,-0.0536
8.5960e-06,-0.0088
8.6000e-06,0.0672
8.6040e-06,-0.0576
8.6080e-06,0.0048
8.6120e-06,0.0584
8.6160e-06,-0.0632
8.6200e-06,0.0152
8.6240e-06,0.0536
8.6280e-06,-0.0656
8.6320e-06,0.0224
8.6360e-06,0.0408
8.6400e-06,-0.0688
8.6440e-06,0.0352
8.6480e-06,0.0344
8.6520e-06,-0.068
8.6560e-06,0.04
8.6600e-06,0.0248
8.6640e-06,-0.0664
8.6680e-06,0.0496
8.6720e-06,0.0168
8.6760e-06,-0.0648
8.6800e-06,0.0616
8.6840e-06,0.0032
8.6880e-06,-0.0608
8.6920e-06,0.0632
8.6960e-06,-0.008
8.7000e-06,-0.056
8.7040e-06,0.0712
8.7080e-06,-0.0176
8.7120e-06,-0.0464
8.7160e-06,0.0728
8.7200e-06,-0.028
8.7240e-06,-0.0408
8.7280e-06,0.0712
8.7320e-06,-0.0352
8.7360e-06,-0.0296
8.7400e-06,0.0712
8.7440e-06,-0.0448
8.7480e-06,-0.02
8.7520e-06,0.0696
8.7560e-06,-0.0512
8.7600e-06,-0.0128
8.7640e-06,0.064
8.7680e-06,-0.0584
8.7720e-06,-0.0016
8.7760e-06,0.06
8.7800e-06,-0.0608
8.7840e-06,0.0112
8.7880e-06,0.0528
8.7920e-06,-0.0664
8.7960e-06,0.0224
8.8000e-06,0.048
8.8040e-06,-0.068
8.8080e-06,0.0312
8.8120e-06,0.0344
8.8160e-06,-0.0688
8.8200e-06,0.0416
8.8240e-06,0.0288
8.8280e-06,-0.0696
8.8320e-06,0.0504
8.8360e-06,0.0176
8.8400e-06,-0.0656
8.8440e-06,0.0568
8.8480e-06,0.0048
8.8520e-06,-0.0616
8.8560e-06,0.0624
8.8600e-06,-0.0048
8.8640e-06,-0.0536
8.8680e-06,0.0656
8.8720e-06,-0.0144
8.8760e-06,-0.0496
8.8800e-06,0.068
8.8840e-06,-0.024
8.8880e-06,-0.044
8.8920e-06,0.0704
8.8960e-06,-0.036
8.9000e-06,-0.0328
8.9040e-06,0.072
8.9080e-06,-0.0384
8.9120e-06,-0.0216
8.9160e-06,0.0664
8.9200e-06,-0.0536
8.9240e-06,-0.0064
8.9280e-06,0.0656
8.9320e-06,-0.0576
8.9360e-06,-0.0016
8.9400e-06,0.0608
8.9440e-06,-0.064
8.9480e-06,0.0088
8.9520e-06,0.052
8.9560e-06,-0.0664
8.9600e-06,0.0208
8.9640e-06,0.0456
8.9680e-06,-0.0656
8.9720e-06,0.0304
8.9760e-06,0.0376
8.9800e-06,-0.0696
8.9840e-06,0.0408
8.9880e-06,0.0304
8.9920e-06,-0.0664
8.9960e-06,0.0504
9.0000e-06,0.0176
9.0040e-06,-0.0664
9.0080e-06,0.056
9.0120e-06,0.0104
9.0160e-06,-0.0616
9.0200e-06,0.0616
9.0240e-06,-0.0008
9.0280e-06,-0.0536
9.0320e-06,0.0688
9.0360e-06,-0.0112
9.0400e-06,-0.0464
9.0440e-06,0.068
9.0480e-06,-0.0208
9.0520e-06,-0.0424
9.0560e-06,0.0688
9.0600e-06,-0.0336
9.0640e-06,-0.032
9.0680e-06,0.0728
9.0720e-06,-0.04
9.0760e-06,-0.0232
9.0800e-06,0.068
9.0840e-06,-0.0496
9.0880e-06,-0.0136
9.0920e-06,0.0648
9.0960e-06,-0.0568
9.1000e-06,-0.0032
9.1040e-06,0.0592
9.1080e-06,-0.0624
9.1120e-06,0.008
9.1160e-06,0.0552
9.1200e-06,-0.068
9.1240e-06,0.0144
9.1280e-06,0.0472
9.1320e-06,-0.068
9.1360e-06,0.0304
9.1400e-06,0.0432
9.1440e-06,-0.0672
9.1480e-06,0.0384
9.1520e-06,0.0312
9.1560e-06,-0.0688
9.1600e-06,0.0496
9.1640e-06,0.0192
9.1680e-06,-0.0648
9.1720e-06,0.0544
9.1760e-06,0.0088
9.1800e-06,-0.0592
9.1840e-06,0.0608
9.1880e-06,0.0008
9.1920e-06,-0.0544
9.1960e-06,0.0648
9.2000e-06,-0.0096
9.2040e-06,-0.052
9.2080e-06,0.0688
9.2120e-06,-0.0232
9.2160e-06,-0.0424
9.2200e-06,0.0712
9.2240e-06,-0.0312
9.2280e-06,-0.0368
9.2320e-06,0.0736
9.2360e-06,-0.0408
9.2400e-06,-0.0256
9.2440e-06,0.0696
9.2480e-06,-0.0496
9.2520e-06,-0.0176
9.2560e-06,0.0672
9.2600e-06,-0.0568
9.2640e-06,-0.0024
9.2680e-06,0.0616
9.2720e-06,-0.0592
9.2760e-06,0.0056
9.2800e-06,0.0592
9.2840e-06,-0.064
9.2880e-06,0.0152
9.2920e-06,0.0488
9.2960e-06,-0.0696
9.3000e-06,0.0272
9.3040e-06,0.0384
9.3080e-06,-0.0688
9.3120e-06,0.0384
9.3160e-06,0.0304
9.3200e-06,-0.068
9.3240e-06,0.0472
9.3280e-06,0.0216
9.3320e-06,-0.0648
9.3360e-06,0.0536
9.3400e-06,0.012
9.3440e-06,-0.0624
9.3480e-06,0.0616
9.3520e-06,0.0008
9.3560e-06,-0.0568
9.3600e-06,0.0624
9.3640e-06,-0.0064
9.3680e-06,-0.052
9.3720e-06,0.0672
9.3760e-06,-0.0216
9.3800e-06,-0.0456
9.3840e-06,0.0704
9.3880e-06,-0.028
9.3920e-06,-0.0376
9.3960e-06,0.0704
9.4000e-06,-0.0408
9.4040e-06,-0.0264
9.4080e-06,0.0672
9.4120e-06,-0.0504
9.4160e-06,-0.0184
9.4200e-06,0.068
9.4240e-06,-0.0552
9.4280e-06,-0.008
9.4320e-06,0.0632
9.4360e-06,-0.06
9.4400e-06,0.0056
9.4440e-06,0.0552
9.4480e-06,-0.0672
9.4520e-06,0.0136
9.4560e-06,0.0488
9.4600e-06,-0.0664
9.4640e-06,0.0256
9.4680e-06,0.0376
9.4720e-06,-0.0696
9.4760e-06,0.0328
9.4800e-06,0.0304
9.4840e-06,-0.0696
9.4880e-06,0.0456
9.4920e-06,0.0248
9.4960e-06,-0.0696
9.5000e-06,0.0536
9.5040e-06,0.0128
9.5080e-06,-0.0632
9.5120e-06,0.0608
9.5160e-06,0.0016
9.5200e-06,-0.0584
9.5240e-06,0.0648
9.5280e-06,-0.0088
9.5320e-06,-0.0528
9.5360e-06,0.0696
9.5400e-06,-0.0176
9.5440e-06,-0.0472
9.5480e-06,0.0688
9.5520e-06,-0.0272
9.5560e-06,-0.0352
9.5600e-06,0.0704
9.5640e-06,-0.0384
9.5680e-06,-0.0304
9.5720e-06,0.072
9.5760e-06,-0.0464
9.5800e-06,-0.0176
9.5840e-06,0.0712
9.5880e-06,-0.0544
9.5920e-06,-0.0072
9.5960e-06,0.0656
9.6000e-06,-0.0576
9.6040e-06,0.0032
9.6080e-06,0.0592
9.6120e-06,-0.064
9.6160e-06,0.0128
9.6200e-06,0.0496
9.6240e-06,-0.0672
9.6280e-06,0.0248
9.6320e-06,0.0392
9.6360e-06,-0.0688
9.6400e-06,0.0368
9.6440e-06,0.0392
9.6480e-06,-0.0704
9.6520e-06,0.0424
9.6560e-06,0.0264
9.6600e-06,-0.0664
9.6640e-06,0.0496
9.6680e-06,0.0152
9.6720e-06,-0.064
9.6760e-06,0.0584
9.6800e-06,0.0048
9.6840e-06,-0.06
9.6880e-06,0.064
9.6920e-06,-0.0048
9.6960e-06,-0.0536
9.7000e-06,0.068
9.7040e-06,-0.0184
9.7080e-06,-0.0472
9.7120e-06,0.0704
9.7160e-06,-0.0288
9.7200e-06,-0.0376
9.7240e-06,0.0688
9.7280e-06,-0.036
9.7320e-06,-0.0296
9.7360e-06,0.068
9.7400e-06,-0.0456
9.7440e-06,-0.02
9.7480e-06,0.0672
9.7520e-06,-0.0528
9.7560e-06,-0.0072
9.7600e-06,0.0648
9.7640e-06,-0.0568
9.7680e-06,0.0016
9.7720e-06,0.056
9.7760e-06,-0.0632
9.7800e-06,0.0112
9.7840e-06,0.0544
9.7880e-06,-0.0664
9.7920e-06,0.0272
9.7960e-06,0.0432
9.8000e-06,-0.0672
9.8040e-06,0.0344
9.8080e-06,0.0376
9.8120e-06,-0.0656
9.8160e-06,0.0416
9.8200e-06,0.0272
9.8240e-06,-0.0664
9.8280e-06,0.052
9.8320e-06,0.0168
9.8360e-06,-0.0648
9.8400e-06,0.0584
9.8440e-06,0.0072
9.8480e-06,-0.06
9.8520e-06,0.0608
9.8560e-06,-0.0048
9.8600e-06,-0.0536
9.8640e-06,0.0688
9.8680e-06,-0.0112
9.8720e-06,-0.0496
9.8760e-06,0.0712
9.8800e-06,-0.0232
9.8840e-06,-0.0376
9.8880e-06,0.0688
9.8920e-06,-0.0336
9.8960e-06,-0.0352
9.9000e-06,0.0696
9.9040e-06,-0.0424
9.9080e-06,-0.0224
9.9120e-06,0.0688
9.9160e-06,-0.052
9.9200e-06,-0.0128
9.9240e-06,0.0656
9.9280e-06,-0.056
9.9320e-06,0.0016
9.9360e-06,0.0608
9.9400e-06,-0.0616
9.9440e-06,0.0104
9.9480e-06,0.052
9.9520e-06,-0.0704
9.9560e-06,0.02
9.9600e-06,0.0456
9.9640e-06,-0.0656
9.9680e-06,0.0288
9.9720e-06,0.0384
9.9760e-06,-0.0664
9.9800e-06,0.04
9.9840e-06,0.0264
9.9880e-06,-0.068
9.9920e-06,0.0488
9.9960e-06,0.02
1.0000e-05,-0.068
1.0004e-05,0.056
1.0008e-05,0.008
1.0012e-05,-0.0608
1.0016e-05,0.0624
1.0020e-05,-0.0032
1.0024e-05,-0.0568
1.0028e-05,0.0656
1.0032e-05,-0.0128
1.0036e-05,-0.0504
1.0040e-05,0.0688
1.0044e-05,-0.024
1.0048e-05,-0.0424
1.0052e-05,0.0696
1.0056e-05,-0.0336
1.0060e-05,-0.0304
1.0064e-05,0.0688
1.0068e-05,-0.0424
1.0072e-05,-0.0216
1.0076e-05,0.068
1.0080e-05,-0.0488
1.0084e-05,-0.0112
1.0088e-05,0.0624
1.0092e-05,-0.056
1.0096e-05,0
1.0100e-05,0.06
1.0104e-05,-0.0576
1.0108e-05,0.0112
1.0112e-05,0.0528
1.0116e-05,-0.0632
1.0120e-05,0.0184
1.0124e-05,0.0464
1.0128e-05,-0.0688
1.0132e-05,0.0304
1.0136e-05,0.0344
1.0140e-05,-0.0664
1.0144e-05,0.0384
1.0148e-05,0.0296
1.0152e-05,-0.0656
1.0156e-05,0.0464
1.0160e-05,0.0208
1.0164e-05,-0.0656
1.0168e-05,0.0552
1.0172e-05,0.008
1.0176e-05,-0.0624
1.0180e-05,0.0616
1.0184e-05,0
1.0188e-05,-0.0552
1.0192e-05,0.0632
1.0196e-05,-0.012
1.0200e-05,-0.0504
1.0204e-05,0.0672
1.0208e-05,-0.0208
1.0212e-05,-0.0408
1.0216e-05,0.0712
1.0220e-05,-0.0312
1.0224e-05,-0.0312
1.0228e-05,0.0712
1.0232e-05,-0.0384
1.0236e-05,-0.0248
1.0240e-05,0.0704
1.0244e-05,-0.0488
1.0248e-05,-0.0128
1.0252e-05,0.064
1.0256e-05,-0.0544
1.0260e-05,-0.0048
1.0264e-05,0.0616
1.0268e-05,-0.0616
1.0272e-05,0.0064
1.0276e-05,0.0592
1.0280e-05,-0.0688
1.0284e-05,0.0208
1.0288e-05,0.0488
1.0292e-05,-0.0656
1.0296e-05,0.028
1.0300e-05,0.0408
1.0304e-05,-0.068
1.0308e-05,0.0392
1.0312e-05,0.0304
1.0316e-05,-0.0696
1.0320e-05,0.0456
1.0324e-05,0.0184
1.0328e-05,-0.0656
1.0332e-05,0.0536
1.0336e-05,0.012
1.0340e-05,-0.064
1.0344e-05,0.0608
1.0348e-05,0.0008
1.0352e-05,-0.0616
1.0356e-05,0.0656
1.0360e-05,-0.0072
1.0364e-05,-0.048
1.0368e-05,0.0672
1.0372e-05,-0.0208
1.0376e-05,-0.044
1.0380e-05,0.0704
1.0384e-05,-0.0328
1.0388e-05,-0.036
1.0392e-05,0.068
1.0396e-05,-0.04
1.0400e-05,-0.0256
1.0404e-05,0.0704
1.0408e-05,-0.0472
1.0412e-05,-0.0144
1.0416e-05,0.0704
1.0420e-05,-0.0536
1.0424e-05,-0.0056
1.0428e-05,0.06
1.0432e-05,-0.06
1.0436e-05,0.004
1.0440e-05,0.0568
1.0444e-05,-0.0656
1.0448e-05,0.0176
1.0452e-05,0.052
1.0456e-05,-0.0672
1.0460e-05,0.0288
1.0464e-05,0.0416
1.0468e-05,-0.0696
1.0472e-05,0.0344
1.0476e-05,0.032
1.0480e-05,-0.068
1.0484e-05,0.0456
1.0488e-05,0.0224
1.0492e-05,-0.0672
1.0496e-05,0.052
1.0500e-05,0.0112
1.0504e-05,-0.064
1.0508e-05,0.0592
1.0512e-05,0.0024
1.0516e-05,-0.06
1.0520e-05,0.064
1.0524e-05,-0.0096
1.0528e-05,-0.0552
1.0532e-05,0.068
1.0536e-05,-0.0184
1.0540e-05,-0.048
1.0544e-05,0.0712
1.0548e-05,-0.0288
1.0552e-05,-0.0368
1.0556e-05,0.0688
1.0560e-05,-0.0376
1.0564e-05,-0.0264
1.0568e-05,0.0704
1.0572e-05,-0.0472
1.0576e-05,-0.0176
1.0580e-05,0.068
1.0584e-05,-0.052
1.0588e-05,-0.008
1.0592e-05,0.0656
1.0596e-05,-0.0584
1.0600e-05,0.0048
1.0604e-05,0.056
1.0608e-05,-0.0632
1.0612e-05,0.0128
1.0616e-05,0.0496
1.0620e-05,-0.0688
1.0624e-05,0.0264
1.0628e-05,0.0456
1.0632e-05,-0.068
1.0636e-05,0.032
1.0640e-05,0.0304
1.0644e-05,-0.0672
1.0648e-05,0.044
1.0652e-05,0.0256
1.0656e-05,-0.0696
1.0660e-05,0.0504
1.0664e-05,0.0136
1.0668e-05,-0.0624
1.0672e-05,0.0576
1.0676e-05,0
1.0680e-05,-0.06
1.0684e-05,0.0648
1.0688e-05,-0.0072
1.0692e-05,-0.0544
1.0696e-05,0.0672
1.0700e-05,-0.016
1.0704e-05,-0.0432
1.0708e-05,0.0712
1.0712e-05,-0.0264
1.0716e-05,-0.0376
1.0720e-05,0.0712
1.0724e-05,-0.0368
1.0728e-05,-0.0288
1.0732e-05,0.0688
1.0736e-05,-0.0456
1.0740e-05,-0.0184
1.0744e-05,0.0688
1.0748e-05,-0.0504
1.0752e-05,-0.0096
1.0756e-05,0.064
1.0760e-05,-0.0552
1.0764e-05,0.0016
1.0768e-05,0.0576
1.0772e-05,-0.0624
1.0776e-05,0.0136
1.0780e-05,0.0512
1.0784e-05,-0.064
1.0788e-05,0.0232
1.0792e-05,0.0424
1.0796e-05,-0.0664
1.0800e-05,0.0312
1.0804e-05,0.036
1.0808e-05,-0.0672
1.0812e-05,0.0424
1.0816e-05,0.02
1.0820e-05,-0.068
1.0824e-05,0.0504
1.0828e-05,0.0168
1.0832e-05,-0.0672
1.0836e-05,0.056
1.0840e-05,0.0064
1.0844e-05,-0.0576
1.0848e-05,0.0624
1.0852e-05,-0.0048
1.0856e-05,-0.0552
1.0860e-05,0.068
1.0864e-05,-0.0136
1.0868e-05,-0.048
1.0872e-05,0.0704
1.0876e-05,-0.0232
1.0880e-05,-0.0408
1.0884e-05,0.0688
1.0888e-05,-0.0344
1.0892e-05,-0.0312
1.0896e-05,0.072
1.0900e-05,-0.0424
1.0904e-05,-0.0168
1.0908e-05,0.0664
1.0912e-05,-0.0528
1.0916e-05,-0.0096
1.0920e-05,0.0648
1.0924e-05,-0.0592
1.0928e-05,0.0008
1.0932e-05,0.06
1.0936e-05,-0.0624
1.0940e-05,0.012
1.0944e-05,0.0536
1.0948e-05,-0.0688
1.0952e-05,0.0224
1.0956e-05,0.0464
1.0960e-05,-0.068
1.0964e-05,0.0296
1.0968e-05,0.0344
1.0972e-05,-0.068
1.0976e-05,0.0416
1.0980e-05,0.0264
1.0984e-05,-0.0712
1.0988e-05,0.0512
1.0992e-05,0.0168
1.0996e-05,-0.0632
1.1000e-05,0.0552
1.1004e-05,0.008
1.1008e-05,-0.0632
1.1012e-05,0.0608
1.1016e-05,-0.0048
1.1020e-05,-0.0536
1.1024e-05,0.0656
1.1028e-05,-0.0128
1.1032e-05,-0.0472
1.1036e-05,0.0688
1.1040e-05,-0.0248
1.1044e-05,-0.0392
1.1048e-05,0.0712
1.1052e-05,-0.0336
1.1056e-05,-0.0288
1.1060e-05,0.0704
1.1064e-05,-0.0448
1.1068e-05,-0.0208
1.1072e-05,0.0688
1.1076e-05,-0.0512
1.1080e-05,-0.0136
1.1084e-05,0.064
1.1088e-05,-0.0584
1.1092e-05,0.0008
1.1096e-05,0.06
1.1100e-05,-0.0624
1.1104e-05,0.0128
1.1108e-05,0.0512
1.1112e-05,-0.0664
1.1116e-05,0.0208
1.1120e-05,0.0472
1.1124e-05,-0.0672
1.1128e-05,0.032
1.1132e-05,0.0392
1.1136e-05,-0.068
1.1140e-05,0.04
1.1144e-05,0.0256
1.1148e-05,-0.0688
1.1152e-05,0.0456
1.1156e-05,0.02
1.1160e-05,-0.0656
1.1164e-05,0.0544
1.1168e-05,0.0104
1.1172e-05,-0.0632
1.1176e-05,0.0616
1.1180e-05,-0.0008
1.1184e-05,-0.0544
1.1188e-05,0.0648
1.1192e-05,-0.0152
1.1196e-05,-0.0488
1.1200e-05,0.0696
1.1204e-05,-0.0248
1.1208e-05,-0.0416
1.1212e-05,0.068
1.1216e-05,-0.0288
1.1220e-05,-0.032
1.1224e-05,0.0696
1.1228e-05,-0.0424
1.1232e-05,-0.0208
1.1236e-05,0.068
1.1240e-05,-0.0472
1.1244e-05,-0.0136
1.1248e-05,0.0664
1.1252e-05,-0.056
1.1256e-05,-0.0048
1.1260e-05,0.0616
1.1264e-05,-0.064
1.1268e-05,0.0088
1.1272e-05,0.056
1.1276e-05,-0.0656
1.1280e-05,0.02
1.1284e-05,0.0504
1.1288e-05,-0.0696
1.1292e-05,0.0304
1.1296e-05,0.0368
1.1300e-05,-0.0696
1.1304e-05,0.0392
1.1308e-05,0.0296
1.1312e-05,-0.068
1.1316e-05,0.0464
1.1320e-05,0.02
1.1324e-05,-0.064
1.1328e-05,0.056
1.1332e-05,0.0112
1.1336e-05,-0.0624
1.1340e-05,0.0616
1.1344e-05,-0.0016
1.1348e-05,-0.0608
1.1352e-05,0.0672
1.1356e-05,-0.0104
1.1360e-05,-0.0504
1.1364e-05,0.0688
1.1368e-05,-0.0232
1.1372e-05,-0.044
1.1376e-05,0.0664
1.1380e-05,-0.0296
1.1384e-05,-0.0344
1.1388e-05,0.0712
1.1392e-05,-0.04
1.1396e-05,-0.0264
1.1400e-05,0.0672
1.1404e-05,-0.0504
1.1408e-05,-0.0136
1.1412e-05,0.0648
1.1416e-05,-0.0552
1.1420e-05,-0.004
1.1424e-05,0.0576
1.1428e-05,-0.0608
1.1432e-05,0.0072
1.1436e-05,0.056
1.1440e-05,-0.0664
1.1444e-05,0.0176
1.1448e-05,0.0496
1.1452e-05,-0.0672
1.1456e-05,0.0264
1.1460e-05,0.0408
1.1464e-05,-0.0704
1.1468e-05,0.0376
1.1472e-05,0.0296
1.1476e-05,-0.0664
1.1480e-05,0.044
1.1484e-05,0.02
1.1488e-05,-0.0656
1.1492e-05,0.0528
1.1496e-05,0.0128
1.1500e-05,-0.0616
1.1504e-05,0.06
1.1508e-05,-0.0008
1.1512e-05,-0.0584
1.1516e-05,0.064
1.1520e-05,-0.0096
1.1524e-05,-0.0528
1.1528e-05,0.0704
1.1532e-05,-0.02
1.1536e-05,-0.0424
1.1540e-05,0.0696
1.1544e-05,-0.028
1.1548e-05,-0.0344
1.1552e-05,0.0712
1.1556e-05,-0.04
1.1560e-05,-0.0256
1.1564e-05,0.0704
1.1568e-05,-0.048
1.1572e-05,-0.0152
1.1576e-05,0.0672
1.1580e-05,-0.0544
1.1584e-05,-0.0072
1.1588e-05,0.0624
1.1592e-05,-0.06
1.1596e-05,0.0048
1.1600e-05,0.0584
1.1604e-05,-0.064
1.1608e-05,0.0136
1.1612e-05,0.0472
1.1616e-05,-0.0672
1.1620e-05,0.0232
1.1624e-05,0.0424
1.1628e-05,-0.0696
1.1632e-05,0.0368
1.1636e-05,0.0328
1.1640e-05,-0.0696
1.1644e-05,0.0464
1.1648e-05,0.0192
1.1652e-05,-0.0696
1.1656e-05,0.0536
1.1660e-05,0.0144
1.1664e-05,-0.064
1.1668e-05,0.0592
1.1672e-05,0.0016
1.1676e-05,-0.0592
1.1680e-05,0.064
1.1684e-05,-0.0064
1.1688e-05,-0.0552
1.1692e-05,0.0672
1.1696e-05,-0.0184
1.1700e-05,-0.0432
1.1704e-05,0.0688
1.1708e-05,-0.0296
1.1712e-05,-0.0384
1.1716e-05,0.0712
1.1720e-05,-0.04
1.1724e-05,-0.0296
1.1728e-05,0.0696
1.1732e-05,-0.0456
1.1736e-05,-0.0176
1.1740e-05,0.0656
1.1744e-05,-0.0544
1.1748e-05,-0.0064
1.1752e-05,0.0616
1.1756e-05,-0.0576
1.1760e-05,0.004
1.1764e-05,0.0584
1.1768e-05,-0.064
1.1772e-05,0.0152
1.1776e-05,0.0504
1.1780e-05,-0.0672
1.1784e-05,0.024
1.1788e-05,0.0416
1.1792e-05,-0.0672
1.1796e-05,0.0352
1.1800e-05,0.0344
1.1804e-05,-0.0672
1.1808e-05,0.0408
1.1812e-05,0.0248
1.1816e-05,-0.0656
1.1820e-05,0.0496
1.1824e-05,0.0176
1.1828e-05,-0.064
1.1832e-05,0.0592
1.1836e-05,0.0016
1.1840e-05,-0.0576
1.1844e-05,0.0656
1.1848e-05,-0.0072
1.1852e-05,-0.0544
1.1856e-05,0.0664
1.1860e-05,-0.0176
1.1864e-05,-0.0464
1.1868e-05,0.0688
1.1872e-05,-0.0272
1.1876e-05,-0.0376
1.1880e-05,0.0736
1.1884e-05,-0.036
1.1888e-05,-0.0272
1.1892e-05,0.0688
1.1896e-05,-0.0424
1.1900e-05,-0.0176
1.1904e-05,0.0688
1.1908e-05,-0.0488
1.1912e-05,-0.0112
1.1916e-05,0.0664
1.1920e-05,-0.0592
1.1924e-05,0.0024
1.1928e-05,0.056
1.1932e-05,-0.0616
1.1936e-05,0.0128
1.1940e-05,0.052
1.1944e-05,-0.0664
1.1948e-05,0.0192
1.1952e-05,0.0448
1.1956e-05,-0.0672
1.1960e-05,0.0312
1.1964e-05,0.0344
1.1968e-05,-0.0688
1.1972e-05,0.0416
1.1976e-05,0.0264
1.1980e-05,-0.068
1.1984e-05,0.0488
1.1988e-05,0.0144
1.1992e-05,-0.064
1.1996e-05,0.056
1.2000e-05,0.004
1.2004e-05,-0.0608
1.2008e-05,0.06
1.2012e-05,-0.0048
1.2016e-05,-0.0552
1.2020e-05,0.064
1.2024e-05,-0.0152
1.2028e-05,-0.0456
1.2032e-05,0.0688
1.2036e-05,-0.0224
1.2040e-05,-0.0376
1.2044e-05,0.072
1.2048e-05,-0.0336
1.2052e-05,-0.0304
1.2056e-05,0.0664
1.2060e-05,-0.0432
1.2064e-05,-0.024
1.2068e-05,0.0688
1.2072e-05,-0.0528
1.2076e-05,-0.0128
1.2080e-05,0.0672
1.2084e-05,-0.0568
1.2088e-05,-0.0016
1.2092e-05,0.06
1.2096e-05,-0.0632
1.2100e-05,0.0112
1.2104e-05,0.0536
1.2108e-05,-0.0656
1.2112e-05,0.02
1.2116e-05,0.0432
1.2120e-05,-0.0696
1.2124e-05,0.032
1.2128e-05,0.0376
1.2132e-05,-0.0688
1.2136e-05,0.0424
1.2140e-05,0.0264
1.2144e-05,-0.0712
1.2148e-05,0.0496
1.2152e-05,0.0184
1.2156e-05,-0.064
1.2160e-05,0.0568
1.2164e-05,0.0056
1.2168e-05,-0.0608
1.2172e-05,0.0616
1.2176e-05,-0.0032
1.2180e-05,-0.0568
1.2184e-05,0.0648
1.2188e-05,-0.012
1.2192e-05,-0.048
1.2196e-05,0.0704
1.2200e-05,-0.0248
1.2204e-05,-0.0424
1.2208e-05,0.0704
1.2212e-05,-0.0336
1.2216e-05,-0.0312
1.2220e-05,0.0688
1.2224e-05,-0.0424
1.2228e-05,-0.0216
1.2232e-05,0.068
1.2236e-05,-0.0496
1.2240e-05,-0.0104
1.2244e-05,0.0648
1.2248e-05,-0.0592
1.2252e-05,-0.0016
1.2256e-05,0.06
1.2260e-05,-0.0624
1.2264e-05,0.0104
1.2268e-05,0.0528
1.2272e-05,-0.068
1.2276e-05,0.02
1.2280e-05,0.0456
1.2284e-05,-0.0656
1.2288e-05,0.0304
1.2292e-05,0.0368
1.2296e-05,-0.0696
1.2300e-05,0.0392
1.2304e-05,0.0296
1.2308e-05,-0.0704
1.2312e-05,0.0512
1.2316e-05,0.0192
1.2320e-05,-0.0656
1.2324e-05,0.0536
1.2328e-05,0.008
1.2332e-05,-0.06
1.2336e-05,0.06
1.2340e-05,-0.0016
1.2344e-05,-0.0544
1.2348e-05,0.0648
1.2352e-05,-0.012
1.2356e-05,-0.0496
1.2360e-05,0.0696
1.2364e-05,-0.0232
1.2368e-05,-0.0432
1.2372e-05,0.0704
1.2376e-05,-0.0344
1.2380e-05,-0.0336
1.2384e-05,0.0744
1.2388e-05,-0.0432
1.2392e-05,-0.0224
1.2396e-05,0.0688
1.2400e-05,-0.0488
1.2404e-05,-0.0128
1.2408e-05,0.0632
1.2412e-05,-0.052
1.2416e-05,-0.0016
1.2420e-05,0.0592
1.2424e-05,-0.0608
1.2428e-05,0.008
1.2432e-05,0.0544
1.2436e-05,-0.0656
1.2440e-05,0.016
1.2444e-05,0.048
1.2448e-05,-0.0712
1.2452e-05,0.0288
1.2456e-05,0.0408
1.2460e-05,-0.0688
1.2464e-05,0.04
1.2468e-05,0.028
1.2472e-05,-0.0656
1.2476e-05,0.0472
1.2480e-05,0.0184
1.2484e-05,-0.0664
1.2488e-05,0.056
1.2492e-05,0.0088
1.2496e-05,-0.0624
1.2500e-05,0.0576
1.2504e-05,-0.0008
1.2508e-05,-0.0576
1.2512e-05,0.0648
1.2516e-05,-0.0112
1.2520e-05,-0.0496
1.2524e-05,0.0672
1.2528e-05,-0.0224
1.2532e-05,-0.0432
1.2536e-05,0.0696
1.2540e-05,-0.0296
1.2544e-05,-0.0344
1.2548e-05,0.0728
1.2552e-05,-0.0376
1.2556e-05,-0.0248
1.2560e-05,0.0712
1.2564e-05,-0.0464
1.2568e-05,-0.0152
1.2572e-05,0.0656
1.2576e-05,-0.0552
1.2580e-05,-0.0016
1.2584e-05,0.0624
1.2588e-05,-0.0584
1.2592e-05,0.0112
1.2596e-05,0.0536
1.2600e-05,-0.0664
1.2604e-05,0.0192
1.2608e-05,0.0488
1.2612e-05,-0.064
1.2616e-05,0.0232
1.2620e-05,0.0416
1.2624e-05,-0.0688
1.2628e-05,0.0376
1.2632e-05,0.0328
1.2636e-05,-0.068
1.2640e-05,0.0456
1.2644e-05,0.02
1.2648e-05,-0.064
1.2652e-05,0.0504
1.2656e-05,0.0136
1.2660e-05,-0.0608
1.2664e-05,0.064
1.2668e-05,0.0032
1.2672e-05,-0.0592
1.2676e-05,0.0632
1.2680e-05,-0.008
1.2684e-05,-0.0488
1.2688e-05,0.0664
1.2692e-05,-0.0232
1.2696e-05,-0.0448
1.2700e-05,0.0696
1.2704e-05,-0.032
1.2708e-05,-0.0344
1.2712e-05,0.068
1.2716e-05,-0.0384
1.2720e-05,-0.0272
1.2724e-05,0.0696
1.2728e-05,-0.0456
1.2732e-05,-0.016
1.2736e-05,0.0648
1.2740e-05,-0.0512
1.2744e-05,-0.008
1.2748e-05,0.0608
1.2752e-05,-0.0568
1.2756e-05,0.0056
1.2760e-05,0.0576
1.2764e-05,-0.0656
1.2768e-05,0.0168
1.2772e-05,0.0496
1.2776e-05,-0.0696
1.2780e-05,0.0248
1.2784e-05,0.0416
1.2788e-05,-0.068
1.2792e-05,0.0344
1.2796e-05,0.032
1.2800e-05,-0.0696
1.2804e-05,0.0424
1.2808e-05,0.024
1.2812e-05,-0.0656
1.2816e-05,0.0528
1.2820e-05,0.0144
1.2824e-05,-0.0656
1.2828e-05,0.0576
1.2832e-05,0.0008
1.2836e-05,-0.06
1.2840e-05,0.064
1.2844e-05,-0.0056
1.2848e-05,-0.052
1.2852e-05,0.0656
1.2856e-05,-0.0168
1.2860e-05,-0.0448
1.2864e-05,0.0688
1.2868e-05,-0.0264
1.2872e-05,-0.0368
1.2876e-05,0.0704
1.2880e-05,-0.036
1.2884e-05,-0.0272
1.2888e-05,0.0712
1.2892e-05,-0.0464
1.2896e-05,-0.0184
1.2900e-05,0.0656
1.2904e-05,-0.0528
1.2908e-05,-0.008
1.2912e-05,0.0616
1.2916e-05,-0.06
1.2920e-05,0.0024
1.2924e-05,0.056
1.2928e-05,-0.064
1.2932e-05,0.0168
1.2936e-05,0.0496
1.2940e-05,-0.0648
1.2944e-05,0.0232
1.2948e-05,0.0448
1.2952e-05,-0.0664
1.2956e-05,0.0328
1.2960e-05,0.0352
1.2964e-05,-0.0664
1.2968e-05,0.0456
1.2972e-05,0.0248
1.2976e-05,-0.0664
1.2980e-05,0.0472
1.2984e-05,0.0144
1.2988e-05,-0.0648
1.2992e-05,0.06
1.2996e-05,0.0032
1.3000e-05,-0.056
1.3004e-05,0.0632
1.3008e-05,-0.008
1.3012e-05,-0.0528
1.3016e-05,0.0664
1.3020e-05,-0.0184
1.3024e-05,-0.0464
1.3028e-05,0.068
1.3032e-05,-0.0256
1.3036e-05,-0.0392
1.3040e-05,0.0712
1.3044e-05,-0.0376
1.3048e-05,-0.0304
1.3052e-05,0.0704
1.3056e-05,-0.0464
1.3060e-05,-0.0184
1.3064e-05,0.0664
1.3068e-05,-0.0512
1.3072e-05,-0.0072
1.3076e-05,0.064
1.3080e-05,-0.0568
1.3084e-05,0.0016
1.3088e-05,0.0584
1.3092e-05,-0.06
1.3096e-05,0.0128
1.3100e-05,0.0528
1.3104e-05,-0.068
1.3108e-05,0.0232
1.3112e-05,0.0424
1.3116e-05,-0.0656
1.3120e-05,0.032
1.3124e-05,0.0352
1.3128e-05,-0.0688
1.3132e-05,0.0408
1.3136e-05,0.0232
1.3140e-05,-0.0664
1.3144e-05,0.0488
1.3148e-05,0.0144
1.3152e-05,-0.0648
1.3156e-05,0.0552
1.3160e-05,0.0048
1.3164e-05,-0.0608
1.3168e-05,0.064
1.3172e-05,-0.0048
1.3176e-05,-0.0544
1.3180e-05,0.064
1.3184e-05,-0.0128
1.3188e-05,-0.0464
1.3192e-05,0.0672
1.3196e-05,-0.0248
1.3200e-05,-0.0376
1.3204e-05,0.0696
1.3208e-05,-0.0336
1.3212e-05,-0.0296
1.3216e-05,0.068
1.3220e-05,-0.0432
1.3224e-05,-0.0224
1.3228e-05,0.0672
1.3232e-05,-0.0472
1.3236e-05,-0.012
1.3240e-05,0.0648
1.3244e-05,-0.0584
1.3248e-05,0.0008
1.3252e-05,0.06
1.3256e-05,-0.0648
1.3260e-05,0.012
1.3264e-05,0.0528
1.3268e-05,-0.0648
1.3272e-05,0.0224
1.3276e-05,0.0488
1.3280e-05,-0.0672
1.3284e-05,0.0328
1.3288e-05,0.0376
1.3292e-05,-0.068
1.3296e-05,0.0392
1.3300e-05,0.0288
1.3304e-05,-0.0672
1.3308e-05,0.048
1.3312e-05,0.0168
1.3316e-05,-0.064
1.3320e-05,0.0568
1.3324e-05,0.0088
1.3328e-05,-0.0592
1.3332e-05,0.0592
1.3336e-05,-0.0032
1.3340e-05,-0.0552
1.3344e-05,0.0624
1.3348e-05,-0.0136
1.3352e-05,-0.0456
1.3356e-05,0.0672
1.3360e-05,-0.0232
1.3364e-05,-0.0416
1.3368e-05,0.068
1.3372e-05,-0.0304
1.3376e-05,-0.0288
1.3380e-05,0.068
1.3384e-05,-0.0456
1.3388e-05,-0.0224
1.3392e-05,0.064
1.3396e-05,-0.0472
1.3400e-05,-0.0152
1.3404e-05,0.0648
1.3408e-05,-0.0544
1.3412e-05,-0.0008
1.3416e-05,0.0608
1.3420e-05,-0.0608
1.3424e-05,0.012
1.3428e-05,0.056
1.3432e-05,-0.0664
1.3436e-05,0.0184
1.3440e-05,0.0456
1.3444e-05,-0.068
1.3448e-05,0.0288
1.3452e-05,0.0384
1.3456e-05,-0.0696
1.3460e-05,0.04
1.3464e-05,0.0264
1.3468e-05,-0.064
1.3472e-05,0.0472
1.3476e-05,0.0184
1.3480e-05,-0.064
1.3484e-05,0.0544
1.3488e-05,0.0088
1.3492e-05,-0.0624
1.3496e-05,0.0616
1.3500e-05,-0.0016
1.3504e-05,-0.0568
1.3508e-05,0.0624
1.3512e-05,-0.0112
1.3516e-05,-0.048
1.3520e-05,0.0712
1.3524e-05,-0.0208
1.3528e-05,-0.0424
1.3532e-05,0.0688
1.3536e-05,-0.0296
1.3540e-05,-0.032
1.3544e-05,0.0696
1.3548e-05,-0.0392
1.3552e-05,-0.024
1.3556e-05,0.0672
1.3560e-05,-0.0488
1.3564e-05,-0.016
1.3568e-05,0.0632
1.3572e-05,-0.0544
1.3576e-05,-0.0024
1.3580e-05,0.06
1.3584e-05,-0.0616
1.3588e-05,0.008
1.3592e-05,0.0536
1.3596e-05,-0.0648
1.3600e-05,0.0192
1.3604e-05,0.0472
1.3608e-05,-0.0672
1.3612e-05,0.0288
1.3616e-05,0.0392
1.3620e-05,-0.0656
1.3624e-05,0.0352
1.3628e-05,0.0296
1.3632e-05,-0.0688
1.3636e-05,0.0456
1.3640e-05,0.02
1.3644e-05,-0.0656
1.3648e-05,0.0544
1.3652e-05,0.0096
1.3656e-05,-0.0624
1.3660e-05,0.0608
1.3664e-05,0.0016
1.3668e-05,-0.0592
1.3672e-05,0.0656
1.3676e-05,-0.012
1.3680e-05,-0.0512
1.3684e-05,0.0656
1.3688e-05,-0.0216
1.3692e-05,-0.0424
1.3696e-05,0.0696
1.3700e-05,-0.0304
1.3704e-05,-0.0368
1.3708e-05,0.072
1.3712e-05,-0.0416
1.3716e-05,-0.0248
1.3720e-05,0.0688
1.3724e-05,-0.0472
1.3728e-05,-0.0168
1.3732e-05,0.064
1.3736e-05,-0.0536
1.3740e-05,-0.0056
1.3744e-05,0.0608
1.3748e-05,-0.06
1.3752e-05,0.0048
1.3756e-05,0.056
1.3760e-05,-0.0632
1.3764e-05,0.016
1.3768e-05,0.0488
1.3772e-05,-0.064
1.3776e-05,0.0256
1.3780e-05,0.04
1.3784e-05,-0.0672
1.3788e-05,0.0376
1.3792e-05,0.0312
1.3796e-05,-0.0672
1.3800e-05,0.0448
1.3804e-05,0.0224
1.3808e-05,-0.0656
1.3812e-05,0.052
1.3816e-05,0.0144
1.3820e-05,-0.064
1.3824e-05,0.056
1.3828e-05,0.0016
1.3832e-05,-0.0576
1.3836e-05,0.0648
1.3840e-05,-0.0096
1.3844e-05,-0.0504
1.3848e-05,0.0664
1.3852e-05,-0.016
1.3856e-05,-0.044
1.3860e-05,0.0704
1.3864e-05,-0.0288
1.3868e-05,-0.0344
1.3872e-05,0.068
1.3876e-05,-0.0368
1.3880e-05,-0.0272
1.3884e-05,0.0688
1.3888e-05,-0.044
1.3892e-05,-0.0168
1.3896e-05,0.0664
1.3900e-05,-0.0512
1.3904e-05,-0.0048
1.3908e-05,0.0616
1.3912e-05,-0.0592
1.3916e-05,0.0016
1.3920e-05,0.0592
1.3924e-05,-0.0632
1.3928e-05,0.0144
1.3932e-05,0.0488
1.3936e-05,-0.0664
1.3940e-05,0.0264
1.3944e-05,0.0408
1.3948e-05,-0.0696
1.3952e-05,0.0336
1.3956e-05,0.0352
1.3960e-05,-0.068
1.3964e-05,0.044
1.3968e-05,0.0216
1.3972e-05,-0.0672
1.3976e-05,0.0528
1.3980e-05,0.0144
1.3984e-05,-0.0624
1.3988e-05,0.0568
1.3992e-05,0.0032
1.3996e-05,-0.0568
1.4000e-05,0.0624
1.4004e-05,-0.0064
1.4008e-05,-0.0504
1.4012e-05,0.0608
1.4016e-05,-0.02
1.4020e-05,-0.044
1.4024e-05,0.0656
1.4028e-05,-0.0248
1.4032e-05,-0.0392
1.4036e-05,0.0688
1.4040e-05,-0.0344
1.4044e-05,-0.0248
1.4048e-05,0.0696
1.4052e-05,-0.044
1.4056e-05,-0.0168
1.4060e-05,0.0664
1.4064e-05,-0.0536
1.4068e-05,-0.0064
1.4072e-05,0.0592
1.4076e-05,-0.0552
1.4080e-05,0.0032
1.4084e-05,0.0568
1.4088e-05,-0.064
1.4092e-05,0.0136
1.4096e-05,0.052
1.4100e-05,-0.0632
1.4104e-05,0.0248
1.4108e-05,0.044
1.4112e-05,-0.0696
1.4116e-05,0.0336
1.4120e-05,0.036
1.4124e-05,-0.0672
1.4128e-05,0.0432
1.4132e-05,0.0248
1.4136e-05,-0.0664
1.4140e-05,0.0504
1.4144e-05,0.0144
1.4148e-05,-0.0608
1.4152e-05,0.0552
1.4156e-05,0.0048
1.4160e-05,-0.056
1.4164e-05,0.0616
1.4168e-05,-0.0072
1.4172e-05,-0.0504
1.4176e-05,0.0656
1.4180e-05,-0.0144
1.4184e-05,-0.048
1.4188e-05,0.0664
1.4192e-05,-0.0256
1.4196e-05,-0.04
1.4200e-05,0.0672
1.4204e-05,-0.036
1.4208e-05,-0.0296
1.4212e-05,0.0672
1.4216e-05,-0.04
1.4220e-05,-0.0216
1.4224e-05,0.0672
1.4228e-05,-0.0488
1.4232e-05,-0.0088
1.4236e-05,0.0656
1.4240e-05,-0.056
1.4244e-05,-0.0024
1.4248e-05,0.0584
1.4252e-05,-0.064
1.4256e-05,0.0096
1.4260e-05,0.0488
1.4264e-05,-0.0664
1.4268e-05,0.0208
1.4272e-05,0.0448
1.4276e-05,-0.068
1.4280e-05,0.0304
1.4284e-05,0.0376
1.4288e-05,-0.0672
1.4292e-05,0.0408
1.4296e-05,0.024
1.4300e-05,-0.0656
1.4304e-05,0.0488
1.4308e-05,0.0128
1.4312e-05,-0.064
1.4316e-05,0.0568
1.4320e-05,0.0056
1.4324e-05,-0.0608
1.4328e-05,0.06
1.4332e-05,-0.0032
1.4336e-05,-0.0552
1.4340e-05,0.0656
1.4344e-05,-0.012
1.4348e-05,-0.0456
1.4352e-05,0.0688
1.4356e-05,-0.0208
1.4360e-05,-0.0376
1.4364e-05,0.068
1.4368e-05,-0.0336
1.4372e-05,-0.0296
1.4376e-05,0.0688
1.4380e-05,-0.0424
1.4384e-05,-0.024
1.4388e-05,0.0664
1.4392e-05,-0.0496
1.4396e-05,-0.0112
1.4400e-05,0.0608
1.4404e-05,-0.0544
1.4408e-05,-0.0008
1.4412e-05,0.0584
1.4416e-05,-0.0632
1.4420e-05,0.012
1.4424e-05,0.0552
1.4428e-05,-0.0616
1.4432e-05,0.02
1.4436e-05,0.0432
1.4440e-05,-0.0648
1.4444e-05,0.028
1.4448e-05,0.0336
1.4452e-05,-0.0664
1.4456e-05,0.0392
1.4460e-05,0.0264
1.4464e-05,-0.0672
1.4468e-05,0.0472
1.4472e-05,0.0184
1.4476e-05,-0.064
1.4480e-05,0.0528
1.4484e-05,0.008
1.4488e-05,-0.0616
1.4492e-05,0.0592
1.4496e-05,-0.0016
1.4500e-05,-0.052
1.4504e-05,0.0648
1.4508e-05,-0.0128
1.4512e-05,-0.048
1.4516e-05,0.068
1.4520e-05,-0.024
1.4524e-05,-0.0424
1.4528e-05,0.0696
1.4532e-05,-0.0288
1.4536e-05,-0.0296
1.4540e-05,0.068
1.4544e-05,-0.0416
1.4548e-05,-0.0248
1.4552e-05,0.0664
1.4556e-05,-0.0488
1.4560e-05,-0.0128
1.4564e-05,0.0664
1.4568e-05,-0.0544
1.4572e-05,-0.0032
1.4576e-05,0.0616
1.4580e-05,-0.0624
1.4584e-05,0.0072
1.4588e-05,0.0544
1.4592e-05,-0.0648
1.4596e-05,0.0192
1.4600e-05,0.0472
1.4604e-05,-0.068
1.4608e-05,0.0264
1.4612e-05,0.0368
1.4616e-05,-0.0696
1.4620e-05,0.0376
1.4624e-05,0.0288
1.4628e-05,-0.0672
1.4632e-05,0.0464
1.4636e-05,0.0176
1.4640e-05,-0.0656
1.4644e-05,0.0536
1.4648e-05,0.0096
1.4652e-05,-0.064
1.4656e-05,0.06
1.4660e-05,0.0008
1.4664e-05,-0.056
1.4668e-05,0.0632
1.4672e-05,-0.0104
1.4676e-05,-0.0528
1.4680e-05,0.0664
1.4684e-05,-0.0232
1.4688e-05,-0.04
1.4692e-05,0.0688
1.4696e-05,-0.0304
1.4700e-05,-0.0328
1.4704e-05,0.0696
1.4708e-05,-0.0368
1.4712e-05,-0.0224
1.4716e-05,0.0696
1.4720e-05,-0.0448
1.4724e-05,-0.016
1.4728e-05,0.064
1.4732e-05,-0.0528
1.4736e-05,-0.0024
1.4740e-05,0.0592
1.4744e-05,-0.0576
1.4748e-05,0.0072
1.4752e-05,0.056
1.4756e-05,-0.0632
1.4760e-05,0.0168
1.4764e-05,0.0448
1.4768e-05,-0.068
1.4772e-05,0.0264
1.4776e-05,0.0376
1.4780e-05,-0.0672
1.4784e-05,0.0344
1.4788e-05,0.0264
1.4792e-05,-0.0672
1.4796e-05,0.0472
1.4800e-05,0.02
1.4804e-05,-0.0656
1.4808e-05,0.052
1.4812e-05,0.0096
1.4816e-05,-0.06
1.4820e-05,0.06
1.4824e-05,-0.0008
1.4828e-05,-0.0576
1.4832e-05,0.0648
1.4836e-05,-0.0104
1.4840e-05,-0.0504
1.4844e-05,0.0664
1.4848e-05,-0.0176
1.4852e-05,-0.0408
1.4856e-05,0.0672
1.4860e-05,-0.0264
1.4864e-05,-0.0352
1.4868e-05,0.068
1.4872e-05,-0.0384
1.4876e-05,-0.028
1.4880e-05,0.0656
1.4884e-05,-0.0456
1.4888e-05,-0.0152
1.4892e-05,0.0648
1.4896e-05,-0.052
1.4900e-05,-0.004
1.4904e-05,0.064
1.4908e-05,-0.0608
1.4912e-05,0.0032
1.4916e-05,0.0576
1.4920e-05,-0.0632
1.4924e-05,0.0152
1.4928e-05,0.048
1.4932e-05,-0.0632
1.4936e-05,0.0272
1.4940e-05,0.0392
1.4944e-05,-0.0664
1.4948e-05,0.0344
1.4952e-05,0.0344
1.4956e-05,-0.0696
1.4960e-05,0.0456
1.4964e-05,0.0216
1.4968e-05,-0.0648
1.4972e-05,0.0496
1.4976e-05,0.012
1.4980e-05,-0.0632
1.4984e-05,0.0576
1.4988e-05,0.0016
1.4992e-05,-0.0568
1.4996e-05,0.0608
1.5000e-05,-0.0088
1.5004e-05,-0.0496
1.5008e-05,0.0664
1.5012e-05,-0.0152
1.5016e-05,-0.044
1.5020e-05,0.0688
1.5024e-05,-0.0272
1.5028e-05,-0.0352
1.5032e-05,0.0704
1.5036e-05,-0.0376
1.5040e-05,-0.028
1.5044e-05,0.0664
1.5048e-05,-0.0456
1.5052e-05,-0.0184
1.5056e-05,0.0656
1.5060e-05,-0.0528
1.5064e-05,-0.0056
1.5068e-05,0.0624
1.5072e-05,-0.06
1.5076e-05,0.0048
1.5080e-05,0.0536
1.5084e-05,-0.0616
1.5088e-05,0.0128
1.5092e-05,0.0512
1.5096e-05,-0.068
1.5100e-05,0.02
1.5104e-05,0.0408
1.5108e-05,-0.0704
1.5112e-05,0.0344
1.5116e-05,0.0304
1.5120e-05,-0.0672
1.5124e-05,0.0432
1.5128e-05,0.024
1.5132e-05,-0.0672
1.5136e-05,0.048
1.5140e-05,0.016
1.5144e-05,-0.0624
1.5148e-05,0.0552
1.5152e-05,0.0032
1.5156e-05,-0.0592
1.5160e-05,0.0656
1.5164e-05,-0.0032
1.5168e-05,-0.0496
1.5172e-05,0.0664
1.5176e-05,-0.0144
1.5180e-05,-0.0472
1.5184e-05,0.0688
1.5188e-05,-0.0272
1.5192e-05,-0.0336
1.5196e-05,0.0704
1.5200e-05,-0.0352
1.5204e-05,-0.0296
1.5208e-05,0.0696
1.5212e-05,-0.0448
1.5216e-05,-0.0184
1.5220e-05,0.0672
1.5224e-05,-0.0504
1.5228e-05,-0.0104
1.5232e-05,0.0608
1.5236e-05,-0.0568
1.5240e-05,0.0016
1.5244e-05,0.0576
1.5248e-05,-0.0608
1.5252e-05,0.0104
1.5256e-05,0.0504
1.5260e-05,-0.0648
1.5264e-05,0.0232
1.5268e-05,0.0424
1.5272e-05,-0.0656
1.5276e-05,0.0304
1.5280e-05,0.0352
1.5284e-05,-0.0632
1.5288e-05,0.0408
1.5292e-05,0.0264
1.5296e-05,-0.0664
1.5300e-05,0.0496
1.5304e-05,0.0168
1.5308e-05,-0.0656
1.5312e-05,0.0536
1.5316e-05,0.0048
1.5320e-05,-0.0624
1.5324e-05,0.06
1.5328e-05,-0.0032
1.5332e-05,-0.0544
1.5336e-05,0.068
1.5340e-05,-0.016
1.5344e-05,-0.0448
1.5348e-05,0.0696
1.5352e-05,-0.0232
1.5356e-05,-0.0376
1.5360e-05,0.0704
1.5364e-05,-0.0328
1.5368e-05,-0.0312
1.5372e-05,0.0688
1.5376e-05,-0.0384
1.5380e-05,-0.0192
1.5384e-05,0.0648
1.5388e-05,-0.052
1.5392e-05,-0.0096
1.5396e-05,0.064
1.5400e-05,-0.06
1.5404e-05,-0.0008
1.5408e-05,0.0592
1.5412e-05,-0.0608
1.5416e-05,0.0112
1.5420e-05,0.0512
1.5424e-05,-0.0656
1.5428e-05,0.0216
1.5432e-05,0.0448
1.5436e-05,-0.0648
1.5440e-05,0.032
1.5444e-05,0.0384
1.5448e-05,-0.0664
1.5452e-05,0.0408
1.5456e-05,0.0272
1.5460e-05,-0.0712
1.5464e-05,0.0472
1.5468e-05,0.0168
1.5472e-05,-0.0648
1.5476e-05,0.0528
1.5480e-05,0.0064
1.5484e-05,-0.0592
1.5488e-05,0.0624
1.5492e-05,-0.004
1.5496e-05,-0.0552
1.5500e-05,0.064
1.5504e-05,-0.0136
1.5508e-05,-0.0456
1.5512e-05,0.068
1.5516e-05,-0.024
1.5520e-05,-0.0368
1.5524e-05,0.0688
1.5528e-05,-0.0328
1.5532e-05,-0.0328
1.5536e-05,0.068
1.5540e-05,-0.0408
1.5544e-05,-0.024
1.5548e-05,0.0688
1.5552e-05,-0.048
1.5556e-05,-0.0112
1.5560e-05,0.0616
1.5564e-05,-0.052
1.5568e-05,0
1.5572e-05,0.06
1.5576e-05,-0.0592
1.5580e-05,0.012
1.5584e-05,0.052
1.5588e-05,-0.0624
1.5592e-05,0.0192
1.5596e-05,0.0464
1.5600e-05,-0.0696
1.5604e-05,0.028
1.5608e-05,0.0384
1.5612e-05,-0.068
1.5616e-05,0.0392
1.5620e-05,0.0272
1.5624e-05,-0.0696
1.5628e-05,0.0472
1.5632e-05,0.02
1.5636e-05,-0.0648
1.5640e-05,0.0552
1.5644e-05,0.008
1.5648e-05,-0.0632
1.5652e-05,0.056
1.5656e-05,0.0008
1.5660e-05,-0.0544
1.5664e-05,0.0632
1.5668e-05,-0.0088
1.5672e-05,-0.0496
1.5676e-05,0.0672
1.5680e-05,-0.024
1.5684e-05,-0.04
1.5688e-05,0.0688
1.5692e-05,-0.0312
1.5696e-05,-0.0296
1.5700e-05,0.0704
1.5704e-05,-0.0416
1.5708e-05,-0.0272
1.5712e-05,0.0696
1.5716e-05,-0.048
1.5720e-05,-0.0136
1.5724e-05,0.0632
1.5728e-05,-0.0544
1.5732e-05,-0.0008
1.5736e-05,0.06
1.5740e-05,-0.0616
1.5744e-05,0.0088
1.5748e-05,0.052
1.5752e-05,-0.0632
1.5756e-05,0.0184
1.5760e-05,0.0496
1.5764e-05,-0.0672
1.5768e-05,0.028
1.5772e-05,0.0392
1.5776e-05,-0.0688
1.5780e-05,0.0368
1.5784e-05,0.0296
1.5788e-05,-0.0672
1.5792e-05,0.0448
1.5796e-05,0.02
1.5800e-05,-0.0656
1.5804e-05,0.0536
1.5808e-05,0.0112
1.5812e-05,-0.0616
1.5816e-05,0.0584
1.5820e-05,0
1.5824e-05,-0.056
1.5828e-05,0.0656
1.5832e-05,-0.0136
1.5836e-05,-0.0504
1.5840e-05,0.068
1.5844e-05,-0.0232
1.5848e-05,-0.0432
1.5852e-05,0.0672
1.5856e-05,-0.032
1.5860e-05,-0.0352
1.5864e-05,0.0704
1.5868e-05,-0.0376
1.5872e-05,-0.0248
1.5876e-05,0.0688
1.5880e-05,-0.0496
1.5884e-05,-0.0136
1.5888e-05,0.0624
1.5892e-05,-0.0528
1.5896e-05,-0.0048
1.5900e-05,0.06
1.5904e-05,-0.0584
1.5908e-05,0.0056
1.5912e-05,0.0552
1.5916e-05,-0.064
1.5920e-05,0.0168
1.5924e-05,0.0456
1.5928e-05,-0.0656
1.5932e-05,0.0256
1.5936e-05,0.0392
1.5940e-05,-0.0656
1.5944e-05,0.0368
1.5948e-05,0.0312
1.5952e-05,-0.0696
1.5956e-05,0.0424
1.5960e-05,0.0224
1.5964e-05,-0.064
1.5968e-05,0.0528
1.5972e-05,0.0136
1.5976e-05,-0.0656
1.5980e-05,0.0584
1.5984e-05,0.0032
1.5988e-05,-0.0576
1.5992e-05,0.064
1.5996e-05,-0.012
1.6000e-05,-0.0496
1.6004e-05,0.0648
1.6008e-05,-0.0176
1.6012e-05,-0.0408
1.6016e-05,0.068
1.6020e-05,-0.0296
1.6024e-05,-0.0352
1.6028e-05,0.0664
1.6032e-05,-0.0368
1.6036e-05,-0.0248
1.6040e-05,0.0696
1.6044e-05,-0.0464
1.6048e-05,-0.0168
1.6052e-05,0.0656
1.6056e-05,-0.0488
1.6060e-05,-0.0056
1.6064e-05,0.0624
1.6068e-05,-0.0576
1.6072e-05,0.0056
1.6076e-05,0.0576
1.6080e-05,-0.0656
1.6084e-05,0.0144
1.6088e-05,0.0512
1.6092e-05,-0.0656
1.6096e-05,0.0232
1.6100e-05,0.04
1.6104e-05,-0.0696
1.6108e-05,0.0384
1.6112e-05,0.0328
1.6116e-05,-0.068
1.6120e-05,0.044
1.6124e-05,0.0216
1.6128e-05,-0.0656
1.6132e-05,0.0512
1.6136e-05,0.012
1.6140e-05,-0.0632
1.6144e-05,0.0552
1.6148e-05,0.0032
1.6152e-05,-0.0568
1.6156e-05,0.0656
1.6160e-05,-0.0072
1.6164e-05,-0.0488
1.6168e-05,0.0672
1.6172e-05,-0.0168
1.6176e-05,-0.0432
1.6180e-05,0.068
1.6184e-05,-0.0248
1.6188e-05,-0.0376
1.6192e-05,0.0712
1.6196e-05,-0.0376
1.6200e-05,-0.0288
1.6204e-05,0.0688
1.6208e-05,-0.0448
1.6212e-05,-0.0192
1.6216e-05,0.068
1.6220e-05,-0.0528
1.6224e-05,-0.0064
1.6228e-05,0.0624
1.6232e-05,-0.0584
1.6236e-05,0.0016
1.6240e-05,0.056
1.6244e-05,-0.0608
1.6248e-05,0.0136
1.6252e-05,0.0504
1.6256e-05,-0.0672
1.6260e-05,0.0232
1.6264e-05,0.0424
1.6268e-05,-0.0688
1.6272e-05,0.0336
1.6276e-05,0.0328
1.6280e-05,-0.0672
1.6284e-05,0.0416
1.6288e-05,0.0248
1.6292e-05,-0.0656
1.6296e-05,0.0488
1.6300e-05,0.012
1.6304e-05,-0.0616
1.6308e-05,0.056
1.6312e-05,0.0064
1.6316e-05,-0.06
1.6320e-05,0.06
1.6324e-05,-0.008
1.6328e-05,-0.0544
1.6332e-05,0.0664
1.6336e-05,-0.0152
1.6340e-05,-0.0472
1.6344e-05,0.0696
1.6348e-05,-0.028
1.6352e-05,-0.0376
1.6356e-05,0.0664
1.6360e-05,-0.036
1.6364e-05,-0.0312
1.6368e-05,0.0688
1.6372e-05,-0.0456
1.6376e-05,-0.0184
1.6380e-05,0.0696
1.6384e-05,-0.0488
1.6388e-05,-0.012
1.6392e-05,0.0632
1.6396e-05,-0.0552
1.6400e-05,0.0032
1.6404e-05,0.0592
1.6408e-05,-0.06
1.6412e-05,0.012
1.6416e-05,0.0512
1.6420e-05,-0.0624
1.6424e-05,0.02
1.6428e-05,0.0456
1.6432e-05,-0.0664
1.6436e-05,0.0328
1.6440e-05,0.0368
1.6444e-05,-0.0672
1.6448e-05,0.0368
1.6452e-05,0.0272
1.6456e-05,-0.0664
1.6460e-05,0.048
1.6464e-05,0.016
1.6468e-05,-0.0624
1.6472e-05,0.0568
1.6476e-05,0.0048
1.6480e-05,-0.0616
1.6484e-05,0.0616
1.6488e-05,-0.0032
1.6492e-05,-0.0536
1.6496e-05,0.0672
1.6500e-05,-0.0152
1.6504e-05,-0.0496
1.6508e-05,0.068
1.6512e-05,-0.0232
1.6516e-05,-0.0384
1.6520e-05,0.072
1.6524e-05,-0.0312
1.6528e-05,-0.0304
1.6532e-05,0.0688
1.6536e-05,-0.0432
1.6540e-05,-0.0224
1.6544e-05,0.0672
1.6548e-05,-0.0504
1.6552e-05,-0.0128
1.6556e-05,0.0632
1.6560e-05,-0.0568
1.6564e-05,-0.0032
1.6568e-05,0.0584
1.6572e-05,-0.0608
1.6576e-05,0.0072
1.6580e-05,0.0528
1.6584e-05,-0.064
1.6588e-05,0.0208
1.6592e-05,0.0416
1.6596e-05,-0.068
1.6600e-05,0.0288
1.6604e-05,0.0384
1.6608e-05,-0.0704
1.6612e-05,0.0384
1.6616e-05,0.0288
1.6620e-05,-0.0672
1.6624e-05,0.0488
1.6628e-05,0.0176
1.6632e-05,-0.0632
1.6636e-05,0.0544
1.6640e-05,0.012
1.6644e-05,-0.06
1.6648e-05,0.06
1.6652e-05,-0.0016
1.6656e-05,-0.0552
1.6660e-05,0.0656
1.6664e-05,-0.016
1.6668e-05,-0.0496
1.6672e-05,0.0696
1.6676e-05,-0.0256
1.6680e-05,-0.0408
1.6684e-05,0.0656
1.6688e-05,-0.0328
1.6692e-05,-0.0304
1.6696e-05,0.0664
1.6700e-05,-0.044
1.6704e-05,-0.0208
1.6708e-05,0.068
1.6712e-05,-0.048
1.6716e-05,-0.0144
1.6720e-05,0.064
1.6724e-05,-0.0544
1.6728e-05,-0.0016
1.6732e-05,0.0592
1.6736e-05,-0.06
1.6740e-05,0.0112
1.6744e-05,0.0536
1.6748e-05,-0.064
1.6752e-05,0.0224
1.6756e-05,0.0456
1.6760e-05,-0.0664
1.6764e-05,0.032
1.6768e-05,0.0368
1.6772e-05,-0.0664
1.6776e-05,0.0424
1.6780e-05,0.028
1.6784e-05,-0.0656
1.6788e-05,0.0464
1.6792e-05,0.02
1.6796e-05,-0.0648
1.6800e-05,0.0544
1.6804e-05,0.0064
1.6808e-05,-0.0624
1.6812e-05,0.0616
1.6816e-05,-0.0016
1.6820e-05,-0.0584
1.6824e-05,0.0656
1.6828e-05,-0.012
1.6832e-05,-0.0496
1.6836e-05,0.068
1.6840e-05,-0.0224
1.6844e-05,-0.0424
1.6848e-05,0.0688
1.6852e-05,-0.0296
1.6856e-05,-0.0344
1.6860e-05,0.0696
1.6864e-05,-0.0392
1.6868e-05,-0.0232
1.6872e-05,0.0688
1.6876e-05,-0.0464
1.6880e-05,-0.0128
1.6884e-05,0.0616
1.6888e-05,-0.0528
1.6892e-05,-0.0016
1.6896e-05,0.0608
1.6900e-05,-0.0576
1.6904e-05,0.0048
1.6908e-05,0.0584
1.6912e-05,-0.0648
1.6916e-05,0.0192
1.6920e-05,0.0488
1.6924e-05,-0.0672
1.6928e-05,0.0248
1.6932e-05,0.0408
1.6936e-05,-0.068
1.6940e-05,0.0352
1.6944e-05,0.0288
1.6948e-05,-0.0696
1.6952e-05,0.0432
1.6956e-05,0.0208
1.6960e-05,-0.0664
1.6964e-05,0.0528
1.6968e-05,0.0088
1.6972e-05,-0.064
1.6976e-05,0.0576
1.6980e-05,-0.0008
1.6984e-05,-0.0576
1.6988e-05,0.0648
1.6992e-05,-0.008
1.6996e-05,-0.0504
1.7000e-05,0.068
1.7004e-05,-0.02
1.7008e-05,-0.0432
1.7012e-05,0.0664
1.7016e-05,-0.028
1.7020e-05,-0.0344
1.7024e-05,0.0704
1.7028e-05,-0.0392
1.7032e-05,-0.0232
1.7036e-05,0.068
1.7040e-05,-0.044
1.7044e-05,-0.016
1.7048e-05,0.0688
1.7052e-05,-0.0496
1.7056e-05,-0.0056
1.7060e-05,0.06
1.7064e-05,-0.0576
1.7068e-05,0.0048
1.7072e-05,0.0544
1.7076e-05,-0.0616
1.7080e-05,0.012
1.7084e-05,0.0488
1.7088e-05,-0.0688
1.7092e-05,0.0288
1.7096e-05,0.0416
1.7100e-05,-0.0656
1.7104e-05,0.036
1.7108e-05,0.0328
1.7112e-05,-0.0672
1.7116e-05,0.0464
1.7120e-05,0.0216
1.7124e-05,-0.0664
1.7128e-05,0.0504
1.7132e-05,0.0104
1.7136e-05,-0.0632
1.7140e-05,0.0552
1.7144e-05,0.0032
1.7148e-05,-0.0544
1.7152e-05,0.0632
1.7156e-05,-0.008
1.7160e-05,-0.0496
1.7164e-05,0.0696
1.7168e-05,-0.0168
1.7172e-05,-0.0416
1.7176e-05,0.0656
1.7180e-05,-0.028
1.7184e-05,-0.0344
1.7188e-05,0.0672
1.7192e-05,-0.0368
1.7196e-05,-0.0272
1.7200e-05,0.068
1.7204e-05,-0.0448
1.7208e-05,-0.0152
1.7212e-05,0.0672
1.7216e-05,-0.0528
1.7220e-05,-0.0048
1.7224e-05,0.0608
1.7228e-05,-0.0616
1.7232e-05,0.0072
1.7236e-05,0.056
1.7240e-05,-0.0608
1.7244e-05,0.0128
1.7248e-05,0.0488
1.7252e-05,-0.0688
1.7256e-05,0.0232
1.7260e-05,0.0424
1.7264e-05,-0.0688
1.7268e-05,0.0328
1.7272e-05,0.0336
1.7276e-05,-0.0696
1.7280e-05,0.0448
1.7284e-05,0.0232
1.7288e-05,-0.0624
1.7292e-05,0.0512
1.7296e-05,0.0104
1.7300e-05,-0.0624
1.7304e-05,0.0552
1.7308e-05,0.0032
1.7312e-05,-0.056
1.7316e-05,0.0624
1.7320e-05,-0.0048
1.7324e-05,-0.0528
1.7328e-05,0.0664
1.7332e-05,-0.0168
1.7336e-05,-0.0464
1.7340e-05,0.0648
1.7344e-05,-0.0256
1.7348e-05,-0.036
1.7352e-05,0.0672
1.7356e-05,-0.036
1.7360e-05,-0.0272
1.7364e-05,0.0672
1.7368e-05,-0.0424
1.7372e-05,-0.0208
1.7376e-05,0.068
1.7380e-05,-0.0528
1.7384e-05,-0.008
1.7388e-05,0.0608
1.7392e-05,-0.056
1.7396e-05,0.0016
1.7400e-05,0.0584
1.7404e-05,-0.0632
1.7408e-05,0.0128
1.7412e-05,0.0496
1.7416e-05,-0.0632
1.7420e-05,0.0232
1.7424e-05,0.044
1.7428e-05,-0.0664
1.7432e-05,0.0304
1.7436e-05,0.036
1.7440e-05,-0.0648
1.7444e-05,0.0392
1.7448e-05,0.0248
1.7452e-05,-0.0664
1.7456e-05,0.0488
1.7460e-05,0.0136
1.7464e-05,-0.0616
1.7468e-05,0.056
1.7472e-05,0.0048
1.7476e-05,-0.0592
1.7480e-05,0.0592
1.7484e-05,-0.0056
1.7488e-05,-0.052
1.7492e-05,0.0648
1.7496e-05,-0.0168
1.7500e-05,-0.0472
1.7504e-05,0.0712
1.7508e-05,-0.028
1.7512e-05,-0.0376
1.7516e-05,0.0672
1.7520e-05,-0.0336
1.7524e-05,-0.028
1.7528e-05,0.068
1.7532e-05,-0.0432
1.7536e-05,-0.02
1.7540e-05,0.0648
1.7544e-05,-0.0496
1.7548e-05,-0.0088
1.7552e-05,0.0656
1.7556e-05,-0.0552
1.7560e-05,0.0016
1.7564e-05,0.0584
1.7568e-05,-0.0616
1.7572e-05,0.012
1.7576e-05,0.0512
1.7580e-05,-0.0656
1.7584e-05,0.0232
1.7588e-05,0.0424
1.7592e-05,-0.0664
1.7596e-05,0.032
1.7600e-05,0.0368
1.7604e-05,-0.064
1.7608e-05,0.04
1.7612e-05,0.0288
1.7616e-05,-0.0664
1.7620e-05,0.0472
1.7624e-05,0.0144
1.7628e-05,-0.064
1.7632e-05,0.056
1.7636e-05,0.0056
1.7640e-05,-0.0576
1.7644e-05,0.0608
1.7648e-05,-0.0032
1.7652e-05,-0.0528
1.7656e-05,0.0632
1.7660e-05,-0.016
1.7664e-05,-0.048
1.7668e-05,0.0688
1.7672e-05,-0.0248
1.7676e-05,-0.0416
1.7680e-05,0.0688
1.7684e-05,-0.032
1.7688e-05,-0.0304
1.7692e-05,0.068
1.7696e-05,-0.0408
1.7700e-05,-0.0216
1.7704e-05,0.0664
1.7708e-05,-0.0488
1.7712e-05,-0.0112
1.7716e-05,0.0624
1.7720e-05,-0.0536
1.7724e-05,0.0008
1.7728e-05,0.0568
1.7732e-05,-0.0608
1.7736e-05,0.0136
1.7740e-05,0.0512
1.7744e-05,-0.0632
1.7748e-05,0.0232
1.7752e-05,0.0424
1.7756e-05,-0.064
1.7760e-05,0.0304
1.7764e-05,0.0368
1.7768e-05,-0.068
1.7772e-05,0.0368
1.7776e-05,0.0264
1.7780e-05,-0.0656
1.7784e-05,0.0472
1.7788e-05,0.02
1.7792e-05,-0.064
1.7796e-05,0.0552
1.7800e-05,0.0088
1.7804e-05,-0.0608
1.7808e-05,0.0624
1.7812e-05,-0.0016
1.7816e-05,-0.0552
1.7820e-05,0.0624
1.7824e-05,-0.0128
1.7828e-05,-0.0496
1.7832e-05,0.0656
1.7836e-05,-0.0232
1.7840e-05,-0.0392
1.7844e-05,0.0728
1.7848e-05,-0.032
1.7852e-05,-0.0336
1.7856e-05,0.0672
1.7860e-05,-0.0408
1.7864e-05,-0.0216
1.7868e-05,0.068
1.7872e-05,-0.0464
1.7876e-05,-0.0096
1.7880e-05,0.0656
1.7884e-05,-0.0536
1.7888e-05,-0.0048
1.7892e-05,0.0584
1.7896e-05,-0.0592
1.7900e-05,0.0072
1.7904e-05,0.0536
1.7908e-05,-0.0664
1.7912e-05,0.0184
1.7916e-05,0.0464
1.7920e-05,-0.0656
1.7924e-05,0.0264
1.7928e-05,0.0376
1.7932e-05,-0.0688
1.7936e-05,0.0392
1.7940e-05,0.024
1.7944e-05,-0.064
1.7948e-05,0.0456
1.7952e-05,0.0192
1.7956e-05,-0.064
1.7960e-05,0.0536
1.7964e-05,0.0048
1.7968e-05,-0.0576
1.7972e-05,0.0592
1.7976e-05,-0.0032
1.7980e-05,-0.056
1.7984e-05,0.0648
1.7988e-05,-0.0136
1.7992e-05,-0.0504
1.7996e-05,0.0688
1.8000e-05,-0.02
1.8004e-05,-0.0416
1.8008e-05,0.0688
1.8012e-05,-0.0296
1.8016e-05,-0.0344
1.8020e-05,0.0688
1.8024e-05,-0.0392
1.8028e-05,-0.0232
1.8032e-05,0.0704
1.8036e-05,-0.0504
1.8040e-05,-0.0128
1.8044e-05,0.0632
1.8048e-05,-0.052
1.8052e-05,-0.0032
1.8056e-05,0.06
1.8060e-05,-0.06
1.8064e-05,0.008
1.8068e-05,0.0536
1.8072e-05,-0.0632
1.8076e-05,0.0208
1.8080e-05,0.0464
1.8084e-05,-0.0656
1.8088e-05,0.0272
1.8092e-05,0.0424
1.8096e-05,-0.0696
1.8100e-05,0.0352
1.8104e-05,0.032
1.8108e-05,-0.0664
1.8112e-05,0.0464
1.8116e-05,0.02
1.8120e-05,-0.064
1.8124e-05,0.052
1.8128e-05,0.0112
1.8132e-05,-0.06
1.8136e-05,0.0576
1.8140e-05,0.0008
1.8144e-05,-0.056
1.8148e-05,0.0624
1.8152e-05,-0.0088
1.8156e-05,-0.0488
1.8160e-05,0.068
1.8164e-05,-0.02
1.8168e-05,-0.0408
1.8172e-05,0.0688
1.8176e-05,-0.0312
1.8180e-05,-0.0336
1.8184e-05,0.0712
1.8188e-05,-0.0408
1.8192e-05,-0.024
1.8196e-05,0.0664
1.8200e-05,-0.0464
1.8204e-05,-0.016
1.8208e-05,0.0624
1.8212e-05,-0.0536
1.8216e-05,-0.0064
1.8220e-05,0.0576
1.8224e-05,-0.0568
1.8228e-05,0.0048
1.8232e-05,0.0584
1.8236e-05,-0.0608
1.8240e-05,0.0152
1.8244e-05,0.0464
1.8248e-05,-0.0664
1.8252e-05,0.024
1.8256e-05,0.0392
1.8260e-05,-0.0704
1.8264e-05,0.0344
1.8268e-05,0.0312
1.8272e-05,-0.068
1.8276e-05,0.0448
1.8280e-05,0.02
1.8284e-05,-0.0656
1.8288e-05,0.0528
1.8292e-05,0.012
1.8296e-05,-0.064
1.8300e-05,0.0568
1.8304e-05,0.0008
1.8308e-05,-0.0592
1.8312e-05,0.0624
1.8316e-05,-0.0104
1.8320e-05,-0.048
1.8324e-05,0.0672
1.8328e-05,-0.0184
1.8332e-05,-0.0424
1.8336e-05,0.0664
1.8340e-05,-0.0264
1.8344e-05,-0.0344
1.8348e-05,0.0728
1.8352e-05,-0.0368
1.8356e-05,-0.0256
1.8360e-05,0.0656
1.8364e-05,-0.0448
1.8368e-05,-0.0152
1.8372e-05,0.068
1.8376e-05,-0.052
1.8380e-05,-0.0072
1.8384e-05,0.0624
1.8388e-05,-0.0592
1.8392e-05,0.0056
1.8396e-05,0.0568
1.8400e-05,-0.0616
1.8404e-05,0.0144
1.8408e-05,0.0504
1.8412e-05,-0.0648
1.8416e-05,0.024
1.8420e-05,0.0416
1.8424e-05,-0.0656
1.8428e-05,0.0344
1.8432e-05,0.0352
1.8436e-05,-0.0656
1.8440e-05,0.0416
1.8444e-05,0.0224
1.8448e-05,-0.0664
1.8452e-05,0.0496
1.8456e-05,0.0112
1.8460e-05,-0.0608
1.8464e-05,0.0536
1.8468e-05,0.004
1.8472e-05,-0.0576
1.8476e-05,0.0632
1.8480e-05,-0.0048
1.8484e-05,-0.0544
1.8488e-05,0.064
1.8492e-05,-0.0184
1.8496e-05,-0.0456
1.8500e-05,0.0648
1.8504e-05,-0.0248
1.8508e-05,-0.0376
1.8512e-05,0.0704
1.8516e-05,-0.0368
1.8520e-05,-0.0312
1.8524e-05,0.0672
1.8528e-05,-0.0472
1.8532e-05,-0.0152
1.8536e-05,0.0656
1.8540e-05,-0.048
1.8544e-05,-0.0112
1.8548e-05,0.0632
1.8552e-05,-0.056
1.8556e-05,0
1.8560e-05,0.056
1.8564e-05,-0.0608
1.8568e-05,0.0128
1.8572e-05,0.0504
1.8576e-05,-0.0632
1.8580e-05,0.0216
1.8584e-05,0.0424
1.8588e-05,-0.0656
1.8592e-05,0.0312
1.8596e-05,0.0344
1.8600e-05,-0.068
1.8604e-05,0.0408
1.8608e-05,0.024
1.8612e-05,-0.0672
1.8616e-05,0.0448
1.8620e-05,0.0152
1.8624e-05,-0.0624
1.8628e-05,0.0552
1.8632e-05,0.0064
1.8636e-05,-0.0608
1.8640e-05,0.06
1.8644e-05,-0.0056
1.8648e-05,-0.0536
1.8652e-05,0.0656
1.8656e-05,-0.0136
1.8660e-05,-0.0464
1.8664e-05,0.0664
1.8668e-05,-0.0256
1.8672e-05,-0.0376
1.8676e-05,0.0688
1.8680e-05,-0.0368
1.8684e-05,-0.0296
1.8688e-05,0.0688
1.8692e-05,-0.0424
1.8696e-05,-0.02
1.8700e-05,0.0656
1.8704e-05,-0.0488
1.8708e-05,-0.0104
1.8712e-05,0.0624
1.8716e-05,-0.056
1.8720e-05,0
1.8724e-05,0.0552
1.8728e-05,-0.0648
1.8732e-05,0.0136
1.8736e-05,0.0512
1.8740e-05,-0.0608
1.8744e-05,0.0208
1.8748e-05,0.0448
1.8752e-05,-0.0664
1.8756e-05,0.0312
1.8760e-05,0.0376
1.8764e-05,-0.0688
1.8768e-05,0.0416
1.8772e-05,0.0248
1.8776e-05,-0.068
1.8780e-05,0.0464
1.8784e-05,0.0184
1.8788e-05,-0.064
1.8792e-05,0.0528
1.8796e-05,0.0088
1.8800e-05,-0.0616
1.8804e-05,0.0592
1.8808e-05,-0.004
1.8812e-05,-0.052
1.8816e-05,0.064
1.8820e-05,-0.0128
1.8824e-05,-0.0464
1.8828e-05,0.0664
1.8832e-05,-0.0232
1.8836e-05,-0.04
1.8840e-05,0.068
1.8844e-05,-0.032
1.8848e-05,-0.0312
1.8852e-05,0.0688
1.8856e-05,-0.0424
1.8860e-05,-0.0208
1.8864e-05,0.0648
1.8868e-05,-0.0504
1.8872e-05,-0.0088
1.8876e-05,0.0616
1.8880e-05,-0.0528
1.8884e-05,-0.0016
1.8888e-05,0.0592
1.8892e-05,-0.0592
1.8896e-05,0.0096
1.8900e-05,0.052
1.8904e-05,-0.064
1.8908e-05,0.0192
1.8912e-05,0.0456
1.8916e-05,-0.0656
1.8920e-05,0.0288
1.8924e-05,0.0368
1.8928e-05,-0.0656
1.8932e-05,0.0368
1.8936e-05,0.0272
1.8940e-05,-0.0648
1.8944e-05,0.0456
1.8948e-05,0.0168
1.8952e-05,-0.0672
1.8956e-05,0.0504
1.8960e-05,0.0072
1.8964e-05,-0.0608
1.8968e-05,0.0592
1.8972e-05,-0.0032
1.8976e-05,-0.0536
1.8980e-05,0.0632
1.8984e-05,-0.012
1.8988e-05,-0.0512
1.8992e-05,0.0688
1.8996e-05,-0.0248
1.9000e-05,-0.0392
1.9004e-05,0.0656
1.9008e-05,-0.0304
1.9012e-05,-0.0304
1.9016e-05,0.0688
1.9020e-05,-0.0384
1.9024e-05,-0.0224
1.9028e-05,0.0688
1.9032e-05,-0.0464
1.9036e-05,-0.0112
1.9040e-05,0.0608
1.9044e-05,-0.0576
1.9048e-05,-0.0024
1.9052e-05,0.0608
1.9056e-05,-0.0592
1.9060e-05,0.008
1.9064e-05,0.0536
1.9068e-05,-0.0632
1.9072e-05,0.0176
1.9076e-05,0.0448
1.9080e-05,-0.0664
1.9084e-05,0.028
1.9088e-05,0.0376
1.9092e-05,-0.068
1.9096e-05,0.0368
1.9100e-05,0.0264
1.9104e-05,-0.0648
1.9108e-05,0.0464
1.9112e-05,0.0176
1.9116e-05,-0.0648
1.9120e-05,0.0528
1.9124e-05,0.0088
1.9128e-05,-0.0616
1.9132e-05,0.0584
1.9136e-05,0.0008
1.9140e-05,-0.0544
1.9144e-05,0.064
1.9148e-05,-0.0112
1.9152e-05,-0.0504
1.9156e-05,0.0664
1.9160e-05,-0.0216
1.9164e-05,-0.0424
1.9168e-05,0.068
1.9172e-05,-0.028
1.9176e-05,-0.0336
1.9180e-05,0.0712
1.9184e-05,-0.0384
1.9188e-05,-0.0232
1.9192e-05,0.0664
1.9196e-05,-0.0464
1.9200e-05,-0.016
1.9204e-05,0.0656
1.9208e-05,-0.052
1.9212e-05,-0.0056
1.9216e-05,0.0584
1.9220e-05,-0.0568
1.9224e-05,0.008
1.9228e-05,0.0544
1.9232e-05,-0.0632
1.9236e-05,0.0144
1.9240e-05,0.0472
1.9244e-05,-0.0656
1.9248e-05,0.0264
1.9252e-05,0.0392
1.9256e-05,-0.0664
1.9260e-05,0.0368
1.9264e-05,0.0304
1.9268e-05,-0.0672
1.9272e-05,0.0456
1.9276e-05,0.0256
1.9280e-05,-0.0672
1.9284e-05,0.0528
1.9288e-05,0.0112
1.9292e-05,-0.0632
1.9296e-05,0.0552
1.9300e-05,0.0008
1.9304e-05,-0.0568
1.9308e-05,0.06
1.9312e-05,-0.0096
1.9316e-05,-0.052
1.9320e-05,0.0656
1.9324e-05,-0.0192
1.9328e-05,-0.0432
1.9332e-05,0.0696
1.9336e-05,-0.0296
1.9340e-05,-0.036
1.9344e-05,0.0688
1.9348e-05,-0.036
1.9352e-05,-0.0248
1.9356e-05,0.0672
1.9360e-05,-0.044
1.9364e-05,-0.016
1.9368e-05,0.068
1.9372e-05,-0.0544
1.9376e-05,-0.004
1.9380e-05,0.0584
1.9384e-05,-0.0592
1.9388e-05,0.004
1.9392e-05,0.0552
1.9396e-05,-0.0656
1.9400e-05,0.0136
1.9404e-05,0.048
1.9408e-05,-0.0632
1.9412e-05,0.0216
1.9416e-05,0.0416
1.9420e-05,-0.0648
1.9424e-05,0.032
1.9428e-05,0.0312
1.9432e-05,-0.068
1.9436e-05,0.044
1.9440e-05,0.0232
1.9444e-05,-0.0656
1.9448e-05,0.0504
1.9452e-05,0.012
1.9456e-05,-0.0616
1.9460e-05,0.056
1.9464e-05,0.0032
1.9468e-05,-0.0552
1.9472e-05,0.0632
1.9476e-05,-0.008
1.9480e-05,-0.0528
1.9484e-05,0.0656
1.9488e-05,-0.016
1.9492e-05,-0.0432
1.9496e-05,0.068
1.9500e-05,-0.028
1.9504e-05,-0.0344
1.9508e-05,0.0656
1.9512e-05,-0.036
1.9516e-05,-0.0264
1.9520e-05,0.0648
1.9524e-05,-0.0416
1.9528e-05,-0.0176
1.9532e-05,0.0656
1.9536e-05,-0.0504
1.9540e-05,-0.0096
1.9544e-05,0.0616
1.9548e-05,-0.0568
1.9552e-05,0.0008
1.9556e-05,0.0568
1.9560e-05,-0.0608
1.9564e-05,0.012
1.9568e-05,0.0472
1.9572e-05,-0.064
1.9576e-05,0.0216
1.9580e-05,0.0424
1.9584e-05,-0.0672
1.9588e-05,0.0312
1.9592e-05,0.0336
1.9596e-05,-0.0672
1.9600e-05,0.0408
1.9604e-05,0.0256
1.9608e-05,-0.0648
1.9612e-05,0.0488
1.9616e-05,0.016
1.9620e-05,-0.0616
1.9624e-05,0.0536
1.9628e-05,0.0056
1.9632e-05,-0.0592
1.9636e-05,0.0648
1.9640e-05,-0.0032
1.9644e-05,-0.0528
1.9648e-05,0.064
1.9652e-05,-0.0128
1.9656e-05,-0.0464
1.9660e-05,0.0688
1.9664e-05,-0.0272
1.9668e-05,-0.0384
1.9672e-05,0.0696
1.9676e-05,-0.0336
1.9680e-05,-0.0312
1.9684e-05,0.0656
1.9688e-05,-0.044
1.9692e-05,-0.0192
1.9696e-05,0.0648
1.9700e-05,-0.0496
1.9704e-05,-0.008
1.9708e-05,0.0624
1.9712e-05,-0.0536
1.9716e-05,0.0008
1.9720e-05,0.0584
1.9724e-05,-0.0624
1.9728e-05,0.0104
1.9732e-05,0.0512
1.9736e-05,-0.0608
1.9740e-05,0.02
1.9744e-05,0.0416
1.9748e-05,-0.0664
1.9752e-05,0.032
1.9756e-05,0.0352
1.9760e-05,-0.0656
1.9764e-05,0.04
1.9768e-05,0.028
1.9772e-05,-0.0672
1.9776e-05,0.0496
1.9780e-05,0.0168
1.9784e-05,-0.0608
1.9788e-05,0.0536
1.9792e-05,0.0064
1.9796e-05,-0.0592
1.9800e-05,0.0616
1.9804e-05,-0.004
1.9808e-05,-0.0536
1.9812e-05,0.0624
1.9816e-05,-0.0152
1.9820e-05,-0.044
1.9824e-05,0.0664
1.9828e-05,-0.0216
1.9832e-05,-0.0368
1.9836e-05,0.0672
1.9840e-05,-0.0344
1.9844e-05,-0.0312
1.9848e-05,0.0672
1.9852e-05,-0.044
1.9856e-05,-0.0208
1.9860e-05,0.0656
1.9864e-05,-0.048
1.9868e-05,-0.0112
1.9872e-05,0.0632
1.9876e-05,-0.052
1.9880e-05,0.0016
1.9884e-05,0.06
1.9888e-05,-0.0632
1.9892e-05,0.0112
1.9896e-05,0.0528
1.9900e-05,-0.064
1.9904e-05,0.02
1.9908e-05,0.0432
1.9912e-05,-0.0632
1.9916e-05,0.0304
1.9920e-05,0.0352
1.9924e-05,-0.0672
1.9928e-05,0.0368
1.9932e-05,0.0272
1.9936e-05,-0.0656
1.9940e-05,0.0488
1.9944e-05,0.0152
1.9948e-05,-0.0632
1.9952e-05,0.052
1.9956e-05,0.008
1.9960e-05,-0.0608
1.9964e-05,0.0608
1.9968e-05,-0.0024
1.9972e-05,-0.0536
1.9976e-05,0.0656
1.9980e-05,-0.0128
1.9984e-05,-0.0464
1.9988e-05,0.0672
1.9992e-05,-0.0224
1.9996e-05,-0.04

